Student_ID,UnixTime_mean,UnixTime_std,UnixTime_min,UnixTime_max,Delta_TP9_mean,Delta_TP9_std,Delta_TP9_min,Delta_TP9_max,Delta_AF7_mean,Delta_AF7_std,Delta_AF7_min,Delta_AF7_max,Delta_AF8_mean,Delta_AF8_std,Delta_AF8_min,Delta_AF8_max,Delta_TP10_mean,Delta_TP10_std,Delta_TP10_min,Delta_TP10_max,Theta_TP9_mean,Theta_TP9_std,Theta_TP9_min,Theta_TP9_max,Theta_AF7_mean,Theta_AF7_std,Theta_AF7_min,Theta_AF7_max,Theta_AF8_mean,Theta_AF8_std,Theta_AF8_min,Theta_AF8_max,Theta_TP10_mean,Theta_TP10_std,Theta_TP10_min,Theta_TP10_max,Alpha_TP9_mean,Alpha_TP9_std,Alpha_TP9_min,Alpha_TP9_max,Alpha_AF7_mean,Alpha_AF7_std,Alpha_AF7_min,Alpha_AF7_max,Alpha_AF8_mean,Alpha_AF8_std,Alpha_AF8_min,Alpha_AF8_max,Alpha_TP10_mean,Alpha_TP10_std,Alpha_TP10_min,Alpha_TP10_max,Beta_TP9_mean,Beta_TP9_std,Beta_TP9_min,Beta_TP9_max,Beta_AF7_mean,Beta_AF7_std,Beta_AF7_min,Beta_AF7_max,Beta_AF8_mean,Beta_AF8_std,Beta_AF8_min,Beta_AF8_max,Beta_TP10_mean,Beta_TP10_std,Beta_TP10_min,Beta_TP10_max,Gamma_TP9_mean,Gamma_TP9_std,Gamma_TP9_min,Gamma_TP9_max,Gamma_AF7_mean,Gamma_AF7_std,Gamma_AF7_min,Gamma_AF7_max,Gamma_AF8_mean,Gamma_AF8_std,Gamma_AF8_min,Gamma_AF8_max,Gamma_TP10_mean,Gamma_TP10_std,Gamma_TP10_min,Gamma_TP10_max,RAW_TP9_mean,RAW_TP9_std,RAW_TP9_min,RAW_TP9_max,RAW_AF7_mean,RAW_AF7_std,RAW_AF7_min,RAW_AF7_max,RAW_AF8_mean,RAW_AF8_std,RAW_AF8_min,RAW_AF8_max,RAW_TP10_mean,RAW_TP10_std,RAW_TP10_min,RAW_TP10_max,AUX_RIGHT_mean,AUX_RIGHT_std,AUX_RIGHT_min,AUX_RIGHT_max,Accelerometer_X_mean,Accelerometer_X_std,Accelerometer_X_min,Accelerometer_X_max,Accelerometer_Y_mean,Accelerometer_Y_std,Accelerometer_Y_min,Accelerometer_Y_max,Accelerometer_Z_mean,Accelerometer_Z_std,Accelerometer_Z_min,Accelerometer_Z_max,Gyro_X_mean,Gyro_X_std,Gyro_X_min,Gyro_X_max,Gyro_Y_mean,Gyro_Y_std,Gyro_Y_min,Gyro_Y_max,Gyro_Z_mean,Gyro_Z_std,Gyro_Z_min,Gyro_Z_max,HeadBandOn_mean,HeadBandOn_std,HeadBandOn_min,HeadBandOn_max,HSI_TP9_mean,HSI_TP9_std,HSI_TP9_min,HSI_TP9_max,HSI_AF7_mean,HSI_AF7_std,HSI_AF7_min,HSI_AF7_max,HSI_AF8_mean,HSI_AF8_std,HSI_AF8_min,HSI_AF8_max,HSI_TP10_mean,HSI_TP10_std,HSI_TP10_min,HSI_TP10_max,Battery_mean,Battery_std,Battery_min,Battery_max,QuestionKey_mean,QuestionKey_std,QuestionKey_min,QuestionKey_max,Elements_mean,Elements_std,Elements_min,Elements_max
1,1680003529.490546,192.18240326457092,1680003196.773,1680003862.343,0.8336638107536377,0.37859898286943894,-0.35296416,1.8551068,0.5747388176386389,0.43296149531220646,-0.94433504,1.5358375,0.7895983549278266,0.5015073368144665,-0.76566595,1.7550774,1.0865307772677242,0.3626643873285938,0.0751783,2.3792708,0.703384769879121,0.26912662754482686,-0.09239576,1.488185,0.20612067777884044,0.3567792518987383,-0.8155096,1.0902894,0.3975642266178214,0.4199946167163957,-0.78826886,1.2478334,0.8507631360537181,0.19477103309604238,0.025930025,1.3783945,0.9898207889533921,0.21306625309804245,0.2347805,1.4769598,0.27104702123324464,0.2792683017413856,-0.52694803,1.0744698,0.45897839617430997,0.3260241507470948,-0.5568775,1.1657654,1.095754727562024,0.2184036789914143,0.083386205,1.5610377,0.5551311332186019,0.12655346651378013,0.17333098,1.2623109,-0.29286871325319735,0.17621517650057264,-0.734581,1.0663724,-0.10394920358182738,0.19801023777490867,-0.5979608,0.9614974,1.3485790114168816,0.11167818195010505,0.22449508,1.6152143,-0.15241549933993806,0.1431728899637853,-0.58059746,0.760066,-0.8483111116658099,0.2282627420088626,-1.2849352,0.6009345,-0.5384366272335623,0.2805845040086776,-1.0867683,0.7418501,1.1910143885121145,0.12185554992487226,-0.27087435,1.482298,853.5277869737438,19.238644902866966,633.4066,979.12085,853.3896428655498,8.634196790316789,795.38464,923.91943,853.2455003525596,10.658027123733836,769.59705,928.3516,826.393312310443,111.30780011796075,0.0,1650.0,849.9717339174226,24.37598951824889,737.76556,953.73627,-0.037906824598057665,0.012828127768854817,-0.1185302734375,0.03216552734375,0.1540573221928542,0.006636621273722687,0.1033935546875,0.242919921875,0.9971479804481066,0.002572172225747589,0.97430419921875,1.03173828125,-0.5859654170338202,0.4959675943314508,-9.637603759765623,13.525543212890623,2.5916010654863992,0.5201554283419656,-7.514190673828125,12.24700927734375,4.199638606962003,0.6541539158376011,-6.50482177734375,15.424652099609377,1.0,0.0,1.0,1.0,1.0016779183970712,0.04092812272072302,1.0,2.0,1.0,0.0,1.0,1.0,1.0,0.0,1.0,1.0,1.040614482256382,0.3209850903449359,1.0,4.0,92.36791834786544,0.35297250775491856,91.75,92.98,,,,,,,,
2,1676984934.9131405,278.77671938971434,1676984452.304,1676985417.731,0.6186084893653283,0.43782434381881896,-0.43219858,2.0149417,0.35470085860848866,0.39219082770054187,-1.0392332,2.0045204,0.23958260143334537,0.40242411265576117,-0.95110536,2.3128111,0.683233519134767,0.41148762673907613,-0.373448,2.4051025,0.4727578663457584,0.29710504919558284,-0.49075037,1.5937591,0.1031054126150316,0.2850923802060252,-0.8257073,1.0385034,-0.034781508350900325,0.27634175238976594,-1.0555853,0.9812162,0.4700571811372186,0.2944133179857618,-0.49654385,1.4566251,0.7041079991884397,0.24225152917115733,-0.26622635,1.5434053,0.3331119866984157,0.2978026722595106,-0.54111016,1.3199444,0.20083972860571975,0.2535481010341021,-0.5513081,1.3177149,0.6710630224314689,0.2527403357846949,-0.31935015,1.4647949,0.5143241673437385,0.21674763713555828,-0.056572277,1.3622317,0.37686696468381187,0.45866686986387656,-0.2642977,1.5830284,0.38680275646568274,0.2537751458296121,-0.20763735,1.4914124,0.48149920939459606,0.2106175882593957,0.050509054,1.5814682,0.2248892217191948,0.25127014289084265,-0.18387108,1.3172145,0.16467579112348008,0.5382755249054092,-0.5685584,1.6836777,0.25738782941277555,0.292339965929805,-0.6240797,1.4762989,0.24055074816037142,0.24366966364244286,-0.33203763,1.4366568,854.5709101321773,47.50448841868773,0.0,1650.0,854.4513712331045,16.752969467150002,486.337,1649.597,854.2536718881975,12.42703518235751,620.9158,1208.3883,850.4627087211962,22.76453346737271,541.53845,1650.0,853.0518388482523,25.965733810254292,732.1245,961.79486,-0.11111029340317241,0.056898997953443047,-0.3760986328125,0.08367919921875,0.13348739204907856,0.05196572480198972,-0.1187744140625,0.25909423828125,0.9905398487591767,0.008605358304030279,0.92523193359375,1.02435302734375,-0.4506642463062035,1.5191166757033108,-21.8023681640625,23.6566162109375,2.5333815844772616,1.944676695515757,-34.879302978515625,29.0399169921875,4.106767344016643,3.390116750105706,-99.8004150390625,86.89544677734375,1.0,0.0,1.0,1.0,1.0165359352947563,0.19050726943192609,1.0,4.0,1.025451905330583,0.27438563972043817,1.0,4.0,1.0009465584627075,0.05328028759578738,1.0,4.0,1.004417272825969,0.06631572548881014,1.0,2.0,77.89210325968949,0.6660341139121506,76.75,79.08,,,,,,,,
3,1678717437.1148946,349.5284134979866,1678716831.835,1678718042.461,0.871064949098695,0.4492798476541034,-0.48396105,1.9477191,0.46932290773072105,0.40900146853034325,-1.0967814,1.6894364,1.2011775763604513,0.48036257290341045,-0.81233245,2.1056128,-inf,,-inf,2.0326545,0.5651058079671428,0.38410162038862866,-0.5470491,1.5317129,0.15035128496265227,0.34820454065714895,-0.8850445,1.185709,0.7806039116957184,0.43089366914026805,-0.90415066,1.5487403,-inf,,-inf,1.4930881,0.746982159994709,0.3289490743362608,-0.45478648,1.4769346,0.1740008891091117,0.22162212038109508,-0.50034827,0.9642199,0.7841339559440881,0.35257200399856387,-0.5315419,1.3782591,-inf,,-inf,1.4609905,0.3842159418215693,0.13928549199661486,-0.07803316,0.9272049,-0.1686981592755142,0.09101132438441079,-0.518134,0.15067051,0.2935040549850506,0.11388985980630721,-0.1064495,0.6808614,-inf,,-inf,1.5493417,-0.1766720149892011,0.14869684581753526,-0.7128416,0.5736337,-0.4958958580660391,0.11891799952306509,-0.95746773,-0.14517678,-0.2080667382543378,0.11287335171319982,-0.67724854,0.25220558,-inf,,-inf,1.3554668,851.0782062970949,28.278960669830045,606.0073,1035.9341,854.1291267027777,6.894837752235567,811.0989,934.7985,853.1045181514291,17.08735478470811,713.1868,1029.4872,719.3203237335664,289.5728209086707,0.0,1650.0,852.0348322534151,26.023682472003458,711.1722,984.35895,-0.2517126968616346,0.020964836306878145,-0.46673583984375,-0.18621826171875,0.1511946200371044,0.01690413767596438,0.08782958984375,0.307373046875,0.9637231613159634,0.007448967666190612,0.77069091796875,1.03863525390625,-0.31388479830399807,1.1300497516310335,-50.311431884765625,48.367462158203125,2.585592693865672,1.0973850431467842,-22.467803955078125,30.22125244140625,4.132470997716206,1.4907790750080978,-78.96255493164062,64.95849609375,1.0,0.0,1.0,1.0,1.011994080070563,0.1088588727496235,1.0,2.0,1.0,0.0,1.0,1.0,1.0007548721722732,0.04758206395810188,1.0,4.0,1.0741452222543892,0.43638774880577214,1.0,4.0,27.841271810800357,0.8447537042595848,26.5,29.42,,,,,,,,
4,1676379226.534706,270.9398546949715,1676378757.365,1676379695.813,0.8193912043711642,0.35054784721676496,-0.23762433,1.9300222,0.5154421252901978,0.46194155475122545,-0.60210997,2.2507224,0.7382404614268642,0.41453743609614696,-0.7182687,2.3339415,0.8911703252131276,0.3576818557679296,-0.25260144,2.0894494,0.5832022321478778,0.2953704156023647,-0.39936712,1.4748514,0.1401199292065183,0.3209446216387357,-0.8540737,1.2825243,0.3477110765733284,0.3338535371983684,-0.84674627,1.3119565,0.5776555838126791,0.30465677255951207,-0.34114566,1.6580806,1.0109991715448834,0.2740273531175435,-0.38160545,1.7929811,0.376811784822107,0.21222959466626576,-0.39920464,1.0606018,0.540982833074931,0.22951765254661038,-0.316873,1.2383856,0.9918750351859663,0.24696196644850443,-0.16668445,1.5782844,0.4063665140495295,0.1496863127390819,-0.06706751,1.0618086,0.6522341685157199,0.25084859090541356,-0.403547,1.3806355,0.4806596459531652,0.33362886971327554,-0.5310944,1.5503999,0.422432159433748,0.1570207132885897,-0.07069684,1.3048416,-0.07491602371379795,0.21390785429122258,-0.7177468,0.94935966,0.49768337739697693,0.3164994252913766,-0.9509541,1.6340437,0.2685720267230088,0.41309541415573686,-0.8622372,1.6862048,-0.010313946848645667,0.22230157939444875,-0.5489048,1.2079453,853.4873114444778,26.494612296547373,556.04395,1245.8608,851.7753541059682,62.37660045636515,0.0,1650.0,852.9153269175353,17.3732346251451,700.293,1396.1538,850.38587210354,28.1898135925136,561.685,1341.7583,852.0492986470413,25.676713749903026,726.08057,973.8828,-0.3000071671325476,0.054616668902703266,-0.45440673828125,-0.0626220703125,0.1817807503407801,0.04862378574951398,0.059814453125,0.32916259765625,0.9422878170605276,0.020369870701219154,0.764892578125,1.01983642578125,-0.47746307117613496,1.2738577773560795,-28.329620361328125,22.95379638671875,2.53534246807041,1.4504376647059654,-22.587432861328125,28.987579345703125,4.071157986829383,2.5615140533462473,-72.8240966796875,53.49655151367188,1.0,0.0,1.0,1.0,1.0016230479793926,0.04025443268254275,1.0,2.0,1.0048691439381776,0.11241045228096169,1.0,4.0,1.0,0.0,1.0,1.0,1.0016230479793926,0.04025443268254275,1.0,2.0,39.11043598908195,0.861693314058162,37.59,40.55,,,,,,,,
5,1676462802.8284214,366.8207098481999,1676462167.585,1676463438.064,0.675257193367824,0.3891876921689194,-0.57970065,1.8527446,0.6852284018967069,0.4591386150044126,-0.96961963,1.9321845,0.670258934639097,0.38543870204455427,-0.36012912,2.26237,0.7263854977047035,0.42682122451204174,-0.61656934,2.3489277,0.4922479621448833,0.29897497344422497,-0.44272876,1.4221416,0.4608109755175496,0.45671068882569066,-0.81461185,1.4228798,0.3663645066698209,0.3262723423819848,-0.69579977,1.3168422,0.4835677177613472,0.3582155137697155,-0.950853,1.549953,0.5962489074028067,0.2727937364502978,-0.41018498,1.4605216,0.5217020521531472,0.3234230578427064,-0.41753912,1.3079023,0.49052124462071517,0.2525156960405466,-0.2798492,1.2092065,0.6259301798458801,0.31859990474779826,-0.43362916,1.4914854,0.6438664396316015,0.13189451601476623,0.17983127,1.1105896,0.09846609100846526,0.13100438162732309,-0.37486085,0.6568274,0.1058682732551795,0.12745691651498,-0.32371798,0.5039598,0.5277900519499804,0.16691229668798174,0.0411341,1.2449237,0.42255613285312155,0.19571458333959185,-0.14281642,1.1950771,-0.16733470759091518,0.16153282808151356,-0.7765952,0.59262025,-0.21812837213353017,0.1869095629310853,-0.76970184,0.29375678,0.210148312835317,0.17108209694077944,-0.27808535,1.0736907,854.3488065227039,64.16170612100012,0.0,1643.1501,853.1832860574731,9.607888349962986,791.3553,960.58606,853.3625930686984,10.00318185166431,554.43225,996.8498,852.7426276616151,42.13086798009557,0.0,1650.0,851.4389810027637,25.803390557891596,722.0513,970.65936,-0.24050860423802364,0.04826747088101421,-0.44976806640625,0.13348388671875,0.15985839872704358,0.07400625406696504,-0.06719970703125,0.47918701171875,0.9620343055407623,0.01928743187937293,0.7012939453125,1.1651611328125,-0.4197423438207997,3.0306836206183747,-58.4686279296875,66.1846923828125,2.648099960092209,2.2271141290404795,-27.9632568359375,44.42718505859375,4.162516477437058,2.827098320943384,-71.17919921875,82.08038330078125,1.0,0.0,1.0,1.0,1.058664287850506,0.23499559901704797,1.0,2.0,1.0,0.0,1.0,1.0,1.0,0.0,1.0,1.0,1.058664287850506,0.23499559901704797,1.0,2.0,76.54289260779439,1.0879450083414755,74.91,78.83,,,,,,,,
6,1679143142.0976267,308.1547721780219,1679142608.827,1679143673.644,0.6497961856115886,0.43311920970506745,-0.4958764,2.0826955,-0.12702060306750787,0.32480418436291275,-1.1564308,1.4396466,0.1863644836056427,0.3278013763499348,-0.92879647,1.3581276,0.6095788285396733,0.45145512725591985,-0.7553796,1.9554527,0.3999620742895,0.35806115154026436,-0.50730085,1.4145306,-0.4277754038386821,0.24155381563572917,-1.3128984,0.7046218,-0.17336352117834022,0.280287346919049,-1.2012603,0.6952344,0.34196513734493356,0.41116861644579733,-0.6356148,1.4025952,0.6298254954094509,0.2418078935981174,-0.24374628,1.2988425,-0.21274837397602311,0.19916185870895803,-0.7753927,1.089787,-0.0921828545634732,0.21150677817654895,-0.9299946,0.71133363,0.5856975511716028,0.2585647004487686,-0.22266525,1.464043,0.19335511203836533,0.12018963848310352,-0.17590669,1.1116374,-0.42513953791375947,0.1755632782382804,-0.9143694,0.5038955,-0.3040747200553583,0.11665886261336836,-0.7246958,0.45439377,0.18459808322362212,0.1505543822408323,-0.20357905,1.1026528,-0.32083951740441785,0.16928108520860385,-0.7418465,0.95017326,-0.7074704980320206,0.2557870806889926,-1.2836682,0.32822034,-0.6072599370398605,0.16340424597719383,-1.0642332,0.2556378,-0.19324704516136157,0.21051211296030045,-0.7784272,0.68976843,852.9185690311382,18.400828177449146,0.8058608,1650.0,853.8985408425261,4.672639230676204,775.2381,1014.57874,853.9394290284247,5.658556355738527,691.4286,1021.02563,849.2966320882268,12.703982255467505,728.49817,1002.0879,850.2160375780295,24.538775182446958,728.0952,961.39197,-0.22883550727415441,0.05190123206053409,-0.4781494140625,0.0281982421875,0.17529998102421931,0.03198983189237805,-0.09765625,0.45416259765625,0.9643106846007446,0.014879232305365654,0.77215576171875,1.1240234375,-0.4761899878355527,1.4997637391758862,-35.6195068359375,33.339080810546875,2.606622605387307,1.3560129684527489,-21.989288330078125,25.279083251953125,4.098193939835164,3.5323050060878836,-71.9268798828125,108.682861328125,1.0,0.0,1.0,1.0,1.0,0.0,1.0,1.0,1.0,0.0,1.0,1.0,1.0,0.0,1.0,1.0,1.0,0.0,1.0,1.0,22.390008613529396,0.3850689592059924,21.75,23.06,,,,,,,,
7,1675688277.7066028,291.96595674387595,1675687772.02,1675688783.361,0.6447776544840331,0.44823637151334295,-0.9334481,2.6312056,0.42129616244347057,0.434206597224597,-0.94163746,1.9556141,0.8672566697826526,0.46649982084239255,-1.1019373,1.955175,0.5677976426092843,0.4439518555814577,-0.64510304,2.3994238,0.45669485351388606,0.33378207515954955,-0.7241014,1.431817,0.135205287554644,0.36589838090169,-0.94194925,1.4099509,0.5047706236321159,0.4081872863434834,-0.8243596,1.4883891,0.4458514170324858,0.33369620814881457,-0.58803236,1.6745455,0.6760568286768964,0.28200818400374306,-0.23691532,1.4161413,0.1623350258685791,0.2750098492056199,-0.65056306,1.657177,0.4512588211220998,0.3207562486362641,-0.78074884,1.5342429,0.6814949373456612,0.2875356979086202,-0.26381353,1.3566893,0.4626911708154004,0.1431829642377368,-0.087704584,1.058587,-0.02241725155390471,0.19235650928039907,-0.6987938,0.6834413,-0.002955853899524491,0.15208412023229434,-0.51872855,0.7164628,0.4771192808130033,0.14377994159539814,-0.02867432,0.9105336,0.14690726167177992,0.1442215187139272,-0.4295397,0.73767114,-0.17001454830641238,0.2636747175077659,-1.164513,0.4651778,-0.29143500344114853,0.18674822940459893,-0.85923874,0.24860041,0.22009570672315248,0.14188250603600608,-0.4089074,0.73867196,854.2644231822127,36.49685054224692,610.4396,1639.9268,853.8874833218031,7.2237529276257,791.75824,949.304,853.2931025036274,10.862842527141465,780.87915,1021.4286,852.5454766312995,27.5697510842572,516.1539,1083.0769,829.7896918390984,31.59436633470175,688.60803,958.5714,-0.07715305388166831,0.015221446560379187,-0.14422607421875,-0.01995849609375,0.1920607893867557,0.010925478720423825,0.1297607421875,0.2760009765625,0.987747262558614,0.002401731336030766,0.9666748046875,1.01910400390625,-0.4817062231647735,0.46777715178205914,-12.57598876953125,19.84344482421875,2.5908741956548473,0.4935408764996729,-9.76470947265625,17.039642333984375,4.122578455972802,0.5673834540719929,-12.688140869140623,20.21728515625,1.0,0.0,1.0,1.0,1.042871485943775,0.202567654217339,1.0,2.0,1.0,0.0,1.0,1.0,1.0,0.0,1.0,1.0,1.042871485943775,0.202567654217339,1.0,2.0,76.75874076952972,0.7177971671504005,75.56,78.03,,,,,,,,
8,1675427505.7585363,163.82474060603604,1675427222.063,1675427789.482,0.9568395493063133,0.36390797226655536,-0.1709132,1.9724027,0.3047079312830827,0.360861851761544,-0.75641966,1.441424,0.5029688929053131,0.33194266036805775,-0.5212558,1.6484149,0.849959230479236,0.3905912243798695,-0.70579845,1.731827,0.6304450206620036,0.31232411642657765,-0.46272218,1.3932807,-0.008558983235397234,0.2859355773157721,-0.8719694,1.0850635,0.12374471872551274,0.2756816158984689,-0.7564061,0.9097796,0.5849768279683919,0.3368169420700663,-0.5945452,1.4175777,0.7957309595589024,0.2463118556381992,-0.068664715,1.3697262,0.08788684558637438,0.20196663705507867,-0.5198442,0.7424658,0.22750052488172945,0.21450463544219747,-0.50895166,0.9802185,0.7357891454357137,0.27846722942803553,-0.24762575,1.400768,0.6279127253550937,0.18429098357891252,0.06582971,1.4030424,-0.312723856874731,0.10924021538380797,-0.75880677,0.28529495,-0.24660037630389592,0.11918659083238944,-0.5581386,0.3402835,0.42361471161072867,0.134151067701345,0.0023923062,0.9279909,0.4072808899373447,0.29445334125827244,-0.19311519,1.2698988,-0.6586250567460229,0.131315711259232,-1.0429735,0.31195664,-0.6871923856579868,0.12296300931524701,-1.0048069,0.057121024,0.1676773538439956,0.1422728563708994,-0.24594204,0.8264745,843.6516599919186,19.112942861830348,659.19415,1039.1575,853.1383534015448,5.632965246018117,813.91943,932.381,852.1944339346902,8.189219916104458,798.20514,922.71063,850.404474016486,14.798691478076911,668.46155,980.7326,851.3699085252485,25.83078891930303,731.7216,966.2271,-0.10963914380560966,0.01501685938107982,-0.25970458984375,0.00042724609375,0.11424136814153633,0.008834481330461788,0.01593017578125,0.18927001953125,0.9952691464927406,0.0034533197995741762,0.9454345703125,1.03936767578125,-0.4493824669169131,0.6908696732633277,-12.42645263671875,12.00775146484375,2.572684934649075,0.8512934319332409,-17.51068115234375,18.05648803710937,4.1175153888599425,1.2052475456977734,-19.21539306640625,26.2286376953125,1.0,0.0,1.0,1.0,1.0,0.0,1.0,1.0,1.0,0.0,1.0,1.0,1.0,0.0,1.0,1.0,1.0,0.0,1.0,1.0,85.68432589069246,0.29799373189880796,85.17,86.23,,,,,,,,
9,1676375366.1639593,318.5244540059346,1676374814.638,1676375921.241,0.8249024857544086,0.47980076400246746,-0.49655226,2.0950003,-inf,,-inf,2.0302875,0.6350490966858672,0.4698317975283426,-0.8565086,2.034163,0.6992855703216028,0.49980879832402625,-0.5813419,1.9136419,0.5426008351302503,0.39025290375751837,-0.91745144,1.6688806,-inf,,-inf,1.6399934,0.30614225622002567,0.43656869148442506,-0.90477693,1.6197318,0.44139328572294073,0.4192680581876415,-0.683273,1.5638694,0.6908602848895511,0.33192678568711376,-0.36219025,1.5261718,-inf,,-inf,1.369407,0.4170194948331442,0.34140812633166295,-0.580312,1.3291435,0.622785151147564,0.3562432145362169,-0.4389539,1.4832668,0.4800820573963308,0.16991940297994987,-0.11376319,1.1165196,-inf,,-inf,1.2146642,0.6615639262031794,0.18170800375430632,0.0,1.2527089,0.4483540640973283,0.17766969963753126,-0.083951026,1.1733327,0.20381806936426897,0.16197174808746484,-0.33615422,0.8708142,-inf,,-inf,1.0891535,0.6408041424106621,0.21593731044392234,-0.19898142,1.5038689,0.20672260837532497,0.2012667355453706,-0.39178547,1.3110178,841.3107311297949,131.7390906688942,0.0,1650.0,857.2523875728772,149.66885157502378,0.0,1650.0,842.8375213932088,134.51590020843608,0.0,1650.0,846.1679191666589,134.34567601848593,0.0,1650.0,850.6546439027984,53.58551577300692,0.0,1650.0,-0.2124494164177557,0.11909741609279259,-1.5308837890625,0.510009765625,0.20118345805235383,0.06605133876569823,-1.05987548828125,1.4229736328125,0.9541728661911291,0.06361403043988807,-0.4974365234375,1.4271240234375,-0.34078432540897635,6.043093088712337,-178.76296997070312,239.5269775390625,2.48356969074121,6.059563702063127,-184.10888671875,147.60711669921875,4.028910349945926,5.322879702968961,-197.1185302734375,158.65036010742188,0.994084140626392,0.07668689227348875,0.0,1.0,1.0939320864095603,0.410576253745209,1.0,4.0,1.0792938982305877,0.4806687779412624,1.0,4.0,1.0888685621967082,0.483772247815215,1.0,4.0,1.1028623018394996,0.4466523064882066,1.0,4.0,45.23326750256888,0.9354304948305583,43.61,46.84,,,,,,,,
10,1677154356.2307065,3.6670779031236744,1677154349.955,1677154362.586,0.0,0.0,0.0,0.0,0.0,0.0,0.0,0.0,0.0,0.0,0.0,0.0,0.0,0.0,0.0,0.0,0.0,0.0,0.0,0.0,0.0,0.0,0.0,0.0,0.0,0.0,0.0,0.0,0.0,0.0,0.0,0.0,0.0,0.0,0.0,0.0,0.0,0.0,0.0,0.0,0.0,0.0,0.0,0.0,0.0,0.0,0.0,0.0,0.0,0.0,0.0,0.0,0.0,0.0,0.0,0.0,0.0,0.0,0.0,0.0,0.0,0.0,0.0,0.0,0.0,0.0,0.0,0.0,0.0,0.0,0.0,0.0,0.0,0.0,0.0,0.0,0.0,0.0,0.0,0.0,489.809779925799,513.19353729546,0.0,1650.0,883.2043346752577,475.95606595724314,131.75824,1628.2417,521.5667175866495,526.5521120363618,0.0,1650.0,485.66624145871134,510.8277231960304,0.0,1650.0,822.7769240645104,525.4367325106746,0.0,1648.3883,0.3076822339873953,0.0005627122754393616,0.30609130859375,0.30950927734375,-0.016068763339642397,0.0009469601919963541,-0.01910400390625,-0.013427734375,0.9579942211662371,0.0005376936074884284,0.95648193359375,0.95965576171875,-0.35682481588776577,0.04576424583712029,-0.456085205078125,-0.246734619140625,2.556491694499537,0.032879220440602104,2.459869384765625,2.639312744140625,4.147452088975415,0.02544642693514722,4.059906005859375,4.2169189453125,0.0,0.0,0.0,0.0,4.0,0.0,4.0,4.0,4.0,0.0,4.0,4.0,4.0,0.0,4.0,4.0,4.0,0.0,4.0,4.0,63.68402577319589,0.012178502042877418,63.66,63.7,,,,,,,,
11,1676894275.6216204,326.0101313072541,1676893711.0579998,1676894840.214,0.6939205056770378,0.3871976587034306,-0.25620243,1.7963787,0.3328585673813106,0.4740437579044817,-0.84534496,2.0018818,0.3444411833356909,0.45406834744044233,-5.810428,1.7616885,0.6928270977577966,0.41010653493521065,-0.40755588,2.1726203,0.640457097954925,0.2763115694139351,-0.4982126,1.570192,0.15133803046761962,0.3462871840231477,-0.8265874,1.5874367,0.14900825641633808,0.3627536801702375,-6.193337,1.2405893,0.6147495230057559,0.2977832675390639,-0.32521805,1.503546,0.8427031455548286,0.23365874272548418,-0.08932103,1.4673885,0.2545426509121815,0.28400791696480693,-0.7199607,1.4140362,0.23936234205444332,0.31469280284273843,-5.4649043,1.3267566,0.7762531026167541,0.2510633523701437,-0.25512978,1.4025098,0.4987186085261625,0.14849990016633247,0.029463554,1.4437816,0.03613327059008011,0.173954540229556,-0.45050174,1.2619797,0.1728082164061776,0.274449778505996,-5.5947876,1.2279627,0.5322077657360237,0.12763160782429042,0.026590081,1.3356268,0.03867832438000084,0.214763921496582,-0.47857335,1.6209364,-0.16470413794312888,0.28190302987202315,-0.91857916,1.4435349,-0.0494930965414579,0.3425233805699261,-5.6716967,1.3912947,0.18809694520322998,0.15577380526816773,-0.29348752,1.399869,848.3148622593034,37.79348270946196,0.0,1650.0,854.0615083490604,30.011465132362307,0.0,1650.0,852.1046574946286,45.229519865640306,0.0,1650.0,842.7191367597632,48.98357053197083,0.0,1650.0,851.484034380497,25.920873259913275,734.5421,981.53845,0.04029701043286301,0.04206310877668904,-0.33782958984375,0.28839111328125,0.14469140142140824,0.027389513945475553,-0.00897216796875,0.3897705078125,0.9967526406660423,0.0069313991212064646,0.78643798828125,1.12213134765625,-0.44580682991457893,1.7127589960211351,-67.94174194335938,45.30197143554688,2.701713328921331,1.4518532152259958,-31.125946044921875,64.00146484375,4.160275597944249,4.919000398431825,-189.40994262695312,177.58163452148438,1.0,0.0,1.0,1.0,1.0100920145738088,0.1212722997187739,1.0,4.0,1.005595716042793,0.11856684929604798,1.0,4.0,1.0031677148360447,0.082433917075788,1.0,4.0,1.01611705460537,0.18309422266327535,1.0,4.0,25.053362361049878,0.5816631779410797,24.17,26.13,,,,,,,,
12,1675773522.0522428,222.6569899002617,1675773135.8,1675773907.792,0.8224605672059412,0.41641016312408285,-0.32321113,1.8096318,1.244753933630291,0.34099829354587124,-0.34915772,2.2344098,1.0688316581994852,0.38393843353727103,-0.51279885,2.1462991,0.7078286825880885,0.4154649712173549,-0.94612586,1.7936099,0.47699470227590574,0.36752079865531456,-0.576516,1.575528,0.8808249992997792,0.3015159202344661,-0.46698838,1.6228333,0.7805265724826003,0.32410254091990603,-0.716733,1.5199049,0.45654708660628496,0.37874088359324654,-0.5564928,1.5553381,0.5082883714612586,0.3166015821776168,-0.42733195,1.2387861,0.830578002101393,0.24131156025445852,-0.26659203,1.3754994,0.7999152246873319,0.2688033134886737,-0.48626283,1.4385235,0.5346815304663738,0.2862696887906081,-0.44563296,1.2599773,0.8124337403251741,0.21977581328714316,0.0,1.4279368,0.8897197585195455,0.27539245283033376,-0.19376232,1.3359061,0.6851422565622151,0.25210930675209486,-0.42283627,1.1765195,0.8219027016768391,0.1995683584787945,0.0,1.3838542,0.4567643356191324,0.18357999980942216,-0.3120499,1.063378,0.6853951793166694,0.3648048521659554,-0.7491608,1.1470312,0.3527976319485552,0.2548124330459778,-0.9196122,0.83962065,0.4784789348632136,0.1784857660553489,-0.16223054,0.9501428,850.0293981101277,112.4594680720017,0.0,1650.0,841.7347966515854,180.68564164944019,0.0,1650.0,850.5481456707095,62.211211816556414,0.0,1650.0,848.4416131424265,103.60167233192227,0.0,1650.0,852.0040919074196,44.18732424557652,0.0,1648.7913,-0.19746272399471754,0.0571684489210759,-0.815185546875,1.79095458984375,0.14345211298446903,0.037037760022919045,-0.8240966796875,0.783203125,0.9766306524636869,0.023631332451073777,-0.0374755859375,1.66168212890625,-0.4939511724121357,3.7311770405044715,-102.9705810546875,58.954620361328125,2.551342902640415,4.877757300930609,-162.17941284179688,132.82546997070312,4.037474410953127,7.1802475226774245,-186.7108154296875,190.389404296875,0.9940410205442506,0.07696424610512781,0.0,1.0,1.2970910156598412,0.5540466142732487,1.0,4.0,1.54447998029247,0.7138558604801186,1.0,4.0,1.017813228679553,0.2304834062377527,1.0,4.0,1.2893226810735507,0.5446510157993132,1.0,4.0,69.43252439019211,0.455695999448684,68.63,70.2,,,,,,,,
13,1676638010.64834,339.10126344394513,1676637423.385,1676638598.017,0.8239911612315377,0.40371828439285384,-0.49878705,1.8537685,0.36068577185271056,0.45514693931935846,-1.0882845,1.8607683,0.39008845313877916,0.41509983824764807,-0.9098603,1.4449533,0.8844275429943368,0.3969357253322667,-0.5004592,1.8061837,0.5504579534592778,0.30641201675477664,-0.52783406,1.5641938,0.16185403330287887,0.4282721117019913,-1.066233,1.4140108,0.1689196701685023,0.3967267008021793,-1.0013185,1.2790809,0.5966882611208277,0.33037752890728556,-0.40147805,1.5025553,0.7076643292579378,0.2756018337042195,-0.20406699,1.4698241,0.25917505189287376,0.3247652591667411,-0.6397944,1.4250704,0.2695070872324264,0.2850223993671159,-0.6100439,1.3503836,0.7418041958135834,0.2774888601277975,-0.25259215,1.6667953,0.39110027260620617,0.14828013972200835,-0.10033637,1.0315204,-0.05410429984791693,0.13300059690380694,-0.527201,0.46878082,0.031615699686061524,0.1354890833181314,-0.42622635,0.745939,0.2722139690628752,0.16557209034916417,-0.27104253,1.1272831,-0.014883949622606786,0.1332299511205582,-0.6111456,0.46846774,-0.27737994914364356,0.1709518863436077,-0.79095495,0.67770636,-0.11252728703444678,0.1660481917062208,-0.7197071,0.8219024,-0.07706537378608366,0.1657585705673138,-0.7182726,1.0186344,847.6096093522503,50.233360809382035,0.0,1650.0,853.8321593482856,7.296226195852624,795.78754,943.2601,853.5893324110726,7.322962836329394,762.3443,929.5604,847.7900832853982,30.340124987716113,546.77655,1054.4689,852.7680296064782,25.759708557085585,728.9011,983.1502,-0.1032180147882032,0.024390212242038713,-0.2420654296875,0.00396728515625,0.08154222991089635,0.011984349732048604,0.00531005859375,0.22491455078125,0.9991570839796584,0.006566504101143346,0.9522705078125,1.05792236328125,-0.45884476487524767,0.8246420016099207,-15.98541259765625,15.888214111328123,2.6776742864973078,1.114745260099199,-13.719940185546877,13.032073974609377,4.16645833990987,1.2445210268827473,-24.39682006835937,27.43988037109375,1.0,0.0,1.0,1.0,1.0096818810511756,0.10053279372080975,1.0,4.0,1.0,0.0,1.0,1.0,1.0,0.0,1.0,1.0,1.0091632088520055,0.09528520227966307,1.0,2.0,52.27017216570741,0.6194588553476367,51.27,53.38,,,,,,,,
14,1676809047.4739172,329.5808550436127,1676808476.745,1676809618.32,0.4711198142209378,0.33422087873563855,-0.4898117,2.0664546,0.18564238641971334,0.5028575004851396,-1.2024714,1.3650362,0.35816789560877016,0.5636383517690552,-1.1369911,1.5769677,0.48534701406599257,0.3509918584049292,-0.5452236,1.7296402,0.44320761832394606,0.29217556217838636,-0.35086745,1.4110689,-0.07489812811106845,0.35299543428114544,-1.0757798,0.85052764,0.1175784433650211,0.4182240049717811,-1.0320864,1.1563076,0.4334067593911223,0.3283754190070412,-0.5944941,1.4508202,0.738194770132063,0.20059108739559145,0.03368346,1.5153104,0.04975669950911725,0.2504722269474767,-0.7269973,1.4207779,0.22011582785748218,0.2714815447042703,-0.62556857,1.3490095,0.6866405436104331,0.21450242986678755,-0.045017853,1.4527143,0.3199291888486668,0.1665604788882659,-0.1270714,1.3598961,-0.46937738609876234,0.15866175644210362,-0.8538883,0.8965376,-0.21247434772134186,0.1298754202411603,-0.6947622,0.99655247,0.10460969976526768,0.16226095023432274,-0.3817101,1.0149965,-0.07500332400483319,0.3000452687466182,-0.67488664,1.4871564,-0.8019040977555305,0.22861084978233254,-1.3545185,0.70151186,-0.48390906191288846,0.15582965742150426,-1.0252601,0.59636945,-0.20192721989518173,0.26321373969970313,-0.79121196,1.0905418,854.9495679889707,16.46323687563963,689.41394,1019.81683,853.7045116193192,5.664397901189632,786.52014,981.13556,853.6502187053937,8.004655497123101,701.50183,1198.7179,848.3402469169322,11.037388976548517,702.71063,1028.6813,850.8954047979041,25.81754625283406,734.94507,992.01465,-0.18683017732431306,0.026779310590622402,-0.37353515625,-0.03759765625,0.1753282023619025,0.016098665856667152,-0.05780029296875,0.2659912109375,0.9752656380825521,0.008236983134599023,0.85418701171875,1.19879150390625,-0.4763071199279318,0.9943877789531017,-49.21234130859375,25.637969970703125,2.6480756268258694,0.8065932286619044,-14.931182861328123,19.806060791015625,4.161366827386571,0.8887434678429889,-20.86029052734375,23.14071655273437,1.0,0.0,1.0,1.0,1.0,0.0,1.0,1.0,1.0,0.0,1.0,1.0,1.0,0.0,1.0,1.0,1.0,0.0,1.0,1.0,38.69097508629273,0.9999077284351408,36.86,40.33,,,,,,,,
15,1679398632.536413,187.89682443984233,1679398307.2159998,1679398957.951,0.917080298133651,0.40275154623877835,-0.49876374,1.923503,0.2683555956415721,0.5856930714967751,-1.2431633,2.1704817,0.989774714844236,0.41250189419458894,-0.72078234,1.8376801,0.8791252226633135,0.41872455844152356,-0.2895834,1.9822341,0.710259234403146,0.34718194415055703,-0.3511753,1.5934081,0.034873628318464876,0.48412706754678475,-0.9629729,1.481306,0.6035077693532596,0.3638370332503985,-0.9042475,1.4705603,0.7185086609857324,0.3390994365045415,-0.25539201,1.4848379,0.964804286448123,0.2873626505599443,-0.15424053,1.5834204,0.17135685359658534,0.29400718714903534,-0.59453034,1.141732,0.6078655192090401,0.25684859092968587,-0.43276817,1.2543635,1.0536402053765206,0.2414463105638106,0.09453416,1.6274949,0.5333331635322714,0.16502695203659876,-0.04689651,1.2906247,-0.04658154318442738,0.1403220356929583,-0.4566864,0.5102139,-0.09150354634569526,0.13542422286737937,-0.48443225,0.7292117,0.8793050124306372,0.10242128719581209,0.4808644,1.2094938,0.18417007114318656,0.1676717509049558,-0.3985966,1.135151,-0.28037289857421477,0.17448799198280254,-0.8384209,0.36274406,-0.48797923418859596,0.16155118236294277,-0.8994896,0.56048214,0.6842973376432933,0.09313744406595026,0.33758077,1.1578853,852.6866311799639,24.35211517080779,562.49084,973.8828,854.7334135713077,30.96368544690795,0.0,1650.0,854.1866194007116,21.50497579210567,0.8058608,1650.0,851.0357839327434,28.226145098874984,533.47986,989.19415,851.5475506362825,25.776106688356105,726.8865,981.53845,-0.01313231526164784,0.045834306669371216,-0.27734375,0.177490234375,0.1593774397966747,0.025541368198081497,-0.100341796875,0.31787109375,0.9951810603006174,0.005416598773772656,0.87933349609375,1.09136962890625,-0.5088438384357181,1.8261463585780473,-44.075775146484375,60.764007568359375,2.6332886206629835,2.786979973516327,-61.51168823242188,38.30368041992188,4.2158251621134735,2.348614173987877,-33.36151123046875,56.9732666015625,1.0,0.0,1.0,1.0,1.0076446520148363,0.08709907858071954,1.0,2.0,1.0018721596771027,0.06838799418268776,1.0,4.0,1.0,0.0,1.0,1.0,1.0076446520148363,0.08709907858071954,1.0,2.0,41.14420823246989,2.6968427563244908,36.78,46.31,,,,,,,,
16,1677840702.934684,212.1190453778068,1677840335.6369998,1677841070.346,0.8191381631405795,0.3258271209321413,-0.27760646,1.8321849,0.808513719927176,0.35942149147314306,-0.5365329,1.7849264,1.1227726717455457,0.376623731466722,-0.42694777,2.2487,0.9756058858181396,0.3948810117462386,-0.63586783,1.4808993,0.7042644626435558,0.29302325336422674,-0.39880213,1.5531348,0.5337986189399214,0.3539702412767729,-0.56463826,1.7023765,0.7395571834220265,0.3421847343097751,-0.6876232,1.4775836,0.9617232757517701,0.3200454744943741,-0.57580537,1.3009313,1.0399785012083824,0.2880089912700589,-0.08935145,1.6541767,0.6693174450404163,0.29753346750450715,-0.46253783,1.4457897,0.7792881197919103,0.26772284075263353,-0.45826405,1.3219116,0.999054657880778,0.17676561185476936,0.33900955,1.4576232,0.3320803430645643,0.12923959138038507,-0.1323516,0.8962308,0.06939456154632472,0.118088394400953,-0.4164215,0.41191602,0.11854743006872341,0.14675520705366008,-0.47695014,0.45496026,1.065974032392824,0.23566559809274906,0.04667446,1.6375961,-0.21576390702331752,0.1550270601908066,-0.7390038,0.4137769,-0.3229881014914048,0.13057383547312104,-0.8438704,0.06531048,-0.26797512091967807,0.15643276834494294,-1.0035388,0.15014495,0.8901509885242379,0.3129526198805895,-0.15343224,1.4575186,852.812492981846,26.97026995162319,620.9158,991.6117,853.5310188838808,11.569150671839216,658.7912,1007.326,853.1826388481257,13.70236079884775,742.1978,997.6557,851.5765304094888,107.77207037974918,439.19415,1602.0513,851.0667537897674,26.033646351903677,727.28937,961.79486,0.05860941749690849,0.0340777001533212,-0.1884765625,0.4268798828125,0.06385513344847771,0.03284041132473433,-0.30438232421875,0.499267578125,1.0020513117538725,0.007939523348888733,0.822998046875,1.1361083984375,-0.4332238181068142,2.9070572760543865,-53.66851806640625,66.46133422851562,2.5668390131054526,2.307109425269309,-29.510955810546875,46.49078369140625,4.182824515031079,3.9433675260487293,-91.74789428710938,97.48260498046876,1.0,0.0,1.0,1.0,1.0105036022540836,0.10194764798451317,1.0,2.0,1.0,0.0,1.0,1.0,1.0,0.0,1.0,1.0,1.7499420429417218,0.4350500324347936,1.0,4.0,41.61050195270704,0.6199211952787276,40.53,42.69,,,,,,,,
17,1676289503.5355897,279.3919434571801,1676289019.72,1676289987.422,0.8981642828277495,0.4642027713026726,-0.28324646,2.9822917,1.0156759692483885,0.4929980315272899,-0.6572687,2.981963,0.6148749663577292,0.45731480158133453,-0.6963302,3.0251844,0.9672123978525289,0.4651247503536406,-0.28935286,3.3684993,0.5542290191622453,0.3987348886306667,-0.50517905,2.0292878,0.6072854866215323,0.42897373045186427,-0.94897074,2.0321,0.21265331729741394,0.3765474790243624,-0.8722323,2.1062717,0.5902435718021274,0.3872623701541978,-0.46380615,2.410672,0.699081300092086,0.34673904832726204,-0.21079628,2.47808,0.638253376776592,0.3608997285949025,-0.69313294,2.4775705,0.2449137322814758,0.31680550996036094,-0.63959205,2.4750237,0.6871878597994454,0.37005571689465966,-0.6070015,2.8261645,0.4505521233366635,0.1732568591399461,-0.14447437,1.5728259,-0.03430103050010799,0.2147139116470443,-0.63326097,1.5627545,-0.3694534173044218,0.21375154042511477,-0.8419578,1.5977807,0.3864993374288328,0.19386519320355353,-0.2133072,1.9187076,0.13067519278324283,0.21357573676404337,-0.3875191,1.3099594,-0.5648371322390703,0.3128378467554071,-1.1403608,1.152558,-0.8055828954581156,0.26609241014022855,-1.2562948,1.0276841,0.0784408215466755,0.23833947989993148,-0.5137709,1.3184397,854.1497816804956,24.834969568350477,589.0842,1570.2197,853.4290419335249,14.084031383113109,0.0,1645.9707,853.1999706578899,15.931329944422783,4.029304,1650.0,852.4894217740556,37.196451931260185,0.0,1650.0,851.8454875603138,25.831271326802717,736.1539,973.47986,-0.2854137123032556,0.05160987720681782,-0.5045166015625,0.1578369140625,0.04263719385397962,0.04615911432408722,-0.12933349609375,0.34979248046875,0.9620725529334571,0.01713010624337998,0.65582275390625,1.36370849609375,-0.40914917291746045,1.8518028824572654,-98.68637084960938,39.43267822265625,2.555359005302614,2.264483694258776,-34.1839599609375,78.61862182617188,4.107725827652734,2.487662236616194,-57.115325927734375,44.54681396484375,1.0,0.0,1.0,1.0,1.0086887942647864,0.0928080183682693,1.0,2.0,1.0,0.0,1.0,1.0,1.0,0.0,1.0,1.0,1.0091085100765642,0.10141364488016989,1.0,4.0,49.852858603158694,0.5067100178363209,48.89,50.66,,,,,,,,
18,1677069463.370649,339.84705272925925,1677068874.8,1677070051.929,0.7863344806367154,0.4939408421583962,-0.6270634,2.0002172,1.259729822239612,0.40254652030415655,-0.10919671,2.390289,0.6184539091820462,0.4888685662917065,-0.7520537,2.3947198,0.8178455916112433,0.4788572731636488,-0.5517283,2.0497038,0.5158400836599861,0.45023731485456325,-0.7594483,1.6962175,0.8723814198142761,0.3660498745589153,-0.49832642,1.6844414,0.3268348675179521,0.45130360493761756,-0.82492375,1.6784095,0.5405493269526139,0.4515084729796921,-0.8928267,1.7005292,0.6490423520044863,0.40083636787695825,-0.59638906,1.512176,0.8494964688530204,0.29480353559588823,-0.13103788,1.427498,0.4289010440371279,0.3284081580864587,-0.72122717,1.41861,0.7077188083774997,0.39229562490825487,-0.4035682,1.5246753,0.3808271820055161,0.21590754377477112,-0.34423894,1.0961211,0.34297676469742344,0.158569165932218,-0.117265806,0.9627624,0.2689368697516972,0.21839019362326406,-0.4613604,0.90112793,0.44474058207495176,0.20976694936442372,-0.21361426,1.2090937,0.10998865588104816,0.1927293948156076,-0.76584285,0.8386224,-0.08265094245002044,0.1963990547171016,-0.56868565,0.88601345,0.013597649589716099,0.2806698021507454,-1.0570408,1.0199382,0.18930374976129014,0.18588206881821032,-0.65831506,0.8858609,854.1509298005642,34.10639322461056,479.8901,1158.8279,854.3759026903945,47.526341754429474,0.0,1650.0,853.7609810885061,17.895820675479285,641.4652,1469.0842,850.7934732297894,34.01121904591206,455.31134,1195.0916,853.4556824924863,25.772872039205126,732.52747,967.4359,0.051269529721420605,0.10468890022226929,-0.6390380859375,0.36334228515625,0.16242608408263887,0.1382007801541251,-0.35650634765625,0.52947998046875,0.9788043717797383,0.026584316330619858,0.7503662109375,1.04559326171875,-0.5043627926766215,3.5035627682797323,-41.6607666015625,53.5638427734375,2.481858370914239,2.9106137992053758,-43.126220703125,48.150634765625,4.167194843923837,3.3840218395187294,-44.539337158203125,47.470245361328125,1.0,0.0,1.0,1.0,1.03355650538173,0.1800848593653141,1.0,2.0,1.0104378847074276,0.17018206138758082,1.0,4.0,1.0,0.0,1.0,1.0,1.03355650538173,0.1800848593653141,1.0,2.0,70.02512858828376,0.6602575911318687,68.86,71.17,,,,,,,,
19,1676466228.571912,367.3031780204084,1676465592.503,1676466864.856,0.6898865390470977,0.3751507525166545,-0.38576078,2.09876,0.6095126739372014,0.3908780975987201,-0.5199238,1.9412549,0.633615875821074,0.3966942563393798,-0.7173319,2.133965,0.6750551279927796,0.37315201775452794,-0.549974,1.8613516,0.6012961180881279,0.40404075810216433,-0.78809124,1.6759098,0.34069197565781356,0.37708205154581736,-0.63592046,1.3030711,0.2968832082258471,0.32631724573589016,-0.7762516,1.2925893,0.6162199519917055,0.39991239505317644,-0.48741165,1.6655793,0.6564669300815569,0.29683196801510975,-0.40390915,1.6006659,0.32486751858553026,0.2573225849543604,-0.47856212,1.1545831,0.2831463502153833,0.24330360387618769,-0.5439432,1.0242126,0.664734994708642,0.2914567282445447,-0.25923204,1.4199936,0.17850036257254367,0.16032446509673942,-0.27920663,1.2324847,-0.2508178525857932,0.14576886094176913,-0.5991169,0.7279388,-0.2813430823151825,0.18770775154176766,-0.6633272,1.0338746,0.17133601616044092,0.1577442118380105,-0.27626616,1.0886497,-0.3814111380126325,0.20575702184080494,-1.1299117,0.89669085,-0.8194687540349086,0.20735393933009888,-1.2446642,0.8659285,-0.8023247850767989,0.306881465759767,-1.3655951,0.85881364,-0.3619842440266394,0.21118849034342735,-0.8835589,0.954843,851.0002774267866,70.67712591496561,0.0,1650.0,848.3623436373938,74.93956467191758,0.0,1650.0,850.2855158984373,76.04537827697601,0.0,1650.0,851.1026098153798,71.16517714910107,0.0,1650.0,850.1535793376925,55.37518208420177,0.0,1650.0,-0.18215403971349975,0.05377781796316987,-1.2838134765625,0.5562744140625,0.048907601053306146,0.06713993023827212,-0.36151123046875,1.76214599609375,0.9862291421481564,0.015038196589455854,0.46405029296875,1.231689453125,-0.43789506554902824,3.7982232160367433,-99.74807739257812,137.68539428710938,2.7212399147459845,2.858722361134067,-72.80166625976562,103.538818359375,4.196731981258388,3.9524345422783194,-48.40484619140625,197.1932983398437,0.9923765142055329,0.0869792373897332,0.0,1.0,1.0341318984050154,0.2955391138060958,1.0,4.0,1.0280660650609543,0.2882558771616814,1.0,4.0,1.0295825233969698,0.29643324837165397,1.0,4.0,1.033223053256266,0.2848426543604374,1.0,4.0,72.30643112215343,0.7553141505975584,70.97,73.61,,,,,,,,
20,1675151174.4731257,190.35005059671684,1675150844.8,1675151504.154,0.553348509730428,0.375821624575656,-0.38345483,1.9265766,0.4946018224629662,0.46093071507040195,-1.090595,1.4697493,-0.02823953067636292,0.3040499011401526,-1.0005093,1.0400497,0.4635522762788702,0.42978608538451163,-0.6267175,2.7947147,0.3953846083454674,0.2554841510642343,-0.30007607,1.5004367,0.13291217080963447,0.40775371838624697,-1.0110863,1.2461612,-0.2941047257248177,0.252071380549482,-1.1643227,0.6703025,0.18294628441943248,0.34770383149897194,-0.75186086,1.3677682,0.7426711298673794,0.22045165219876725,-0.001508607,1.4397329,0.29852733557249306,0.31752480386868637,-0.59420335,1.30363,-0.06513233742707233,0.19832829096122984,-0.6499172,0.5430825,0.5380353701756265,0.2931157813344489,-0.26928288,1.392819,0.5288267936174949,0.1317112864038642,0.027889594,1.0065186,0.26967848942730266,0.13018276731478567,-0.18685743,0.72117656,0.22898804141490867,0.17584189958287194,-0.23822561,0.66749537,0.5428229135426593,0.12669715427907813,0.01664101,1.1093063,0.14885649756818561,0.1551890946711331,-0.41863996,0.7979845,0.01738119220492996,0.1769319979968198,-0.50411457,0.67903745,0.046813156723817306,0.21308514023151937,-0.41568244,0.5546783,0.2906170374401208,0.12710215957222806,-0.11599209,0.9937972,845.8843810841059,43.908074356309996,0.0,1650.0,854.0248098550285,8.523711392982582,774.0293,910.6227,853.1283640923385,6.652650992675643,806.26373,900.14655,851.0110175605249,20.65798549383045,571.75824,1170.9158,852.5667236605045,25.827292340567688,734.1392,965.42126,-0.17141285384495122,0.03295778185766676,-0.3734130859375,0.02923583984375,0.1918378059524837,0.00918167957518237,0.05914306640625,0.28460693359375,0.9750774818173389,0.008276855642286442,0.83538818359375,1.3641357421875,-0.4465874641949078,0.8892535400693219,-14.213409423828123,21.675262451171875,2.5682225514646073,0.9704188687410601,-22.56500244140625,19.2901611328125,4.1426684356896715,1.0179472961225429,-11.551666259765623,23.544464111328125,1.0,0.0,1.0,1.0,1.0064685688167287,0.12142294271875581,1.0,4.0,1.0,0.0,1.0,1.0,1.0,0.0,1.0,1.0,1.0018481625190654,0.04295062257344774,1.0,2.0,50.57265062276122,0.25679696694552734,50.11,50.97,,,,,,,,
21,1676633756.4677274,293.5592266865416,1676633248.327,1676634264.731,0.8017157840927422,0.34342384532026915,-0.38957193,2.1805384,0.10548711639421039,0.43751565074523824,-0.937533,2.1903265,0.6716567774087825,0.376852424141443,-0.721158,2.0940113,0.8490319282339381,0.3870380182698286,-0.32858536,2.1297266,0.5453240187688221,0.31390458901931184,-0.42052963,1.6138014,-0.1870632199221962,0.4172541117514445,-1.1636047,1.427699,0.18052629841323486,0.34158976943739505,-0.87064284,1.1802213,0.5353442475559754,0.31263912151849005,-0.3918636,1.5587648,0.8835375674916164,0.232093964632307,-0.050337963,1.5537547,0.07791928800358786,0.34788968575018614,-0.7462963,1.4254078,0.18521725172485456,0.2509483880074472,-0.78452843,1.0918075,0.8456050975553865,0.21670218253016632,-0.066279195,1.5745631,0.4624757869298565,0.11697439147888071,0.02798307,1.0964425,0.10123514733410792,0.11206737750069577,-0.24459839,0.6866414,-0.06753932663468924,0.18395145418390832,-0.5438353,0.60021526,0.4715369055294427,0.10698591704974053,0.11729367,0.87453055,0.10947073753969952,0.12314016837451838,-0.43366358,0.57756156,-0.08143209608614112,0.12157410461835413,-0.5150728,0.3427775,-0.2927295053853894,0.20466141934173757,-0.9398427,0.5630429,0.13586573615274739,0.11990780639980526,-0.33736372,0.6063126,850.4276011371162,35.74758533480978,497.21613,1558.9377,852.8303687080011,8.635600101102868,634.61536,1025.8608,852.7639596746951,18.233716196939845,18.534798,1602.0513,849.2729020573584,29.87427722132307,609.2308,1245.8608,852.1562199231548,25.843414811264662,719.6337,968.24176,0.05224424163731437,0.042195309336010955,-0.33282470703125,0.13238525390625,0.13740162186263044,0.03136407830836285,-0.02288818359375,0.26898193359375,0.9967910946149119,0.005877821479214515,0.9449462890625,1.06585693359375,-0.4047288105691271,0.6964816169656372,-16.04522705078125,14.60968017578125,2.7081333857597514,1.0530547745680634,-11.6339111328125,20.673370361328125,4.19875732802209,1.125056607486921,-17.33123779296875,30.22125244140625,1.0,0.0,1.0,1.0,1.0026452810248612,0.051364306807343156,1.0,2.0,1.0011985926202782,0.05995292167737065,1.0,4.0,1.0026968333956259,0.0713215403330828,1.0,4.0,1.0026452810248612,0.051364306807343156,1.0,2.0,55.602789434341624,2.752443280710356,-1.0,56.88,,,,,,,,
22,1675856754.6359172,305.4294964893816,1675856225.731,1675857283.698,0.6498241100505164,0.36198344922928805,-0.62351006,1.7789345,0.5116321020134489,0.4682189592351419,-0.9049184,1.7719008,0.9211606167598916,0.40618861056176986,-0.6937302,2.0156448,0.5316054685047639,0.3876250668894926,-0.49484107,1.7251769,0.5707419654265528,0.3235886206451996,-0.49276564,1.5561525,0.25897608101292713,0.33629122981842163,-0.66607094,1.2184851,0.5809190131199102,0.35494584685494035,-0.70036894,1.336373,0.5134991678663303,0.3311161180422638,-0.43149638,1.6038319,0.7827877754596761,0.28068781836219203,-0.20872706,1.4495057,0.46848847939804944,0.20492902515371425,-0.28426605,1.1332079,0.6924186012521072,0.24944455468271845,-0.23546018,1.2452977,0.7299702869194242,0.2752950948970761,-0.28744262,1.526503,0.6249265055402969,0.19528436195047946,-0.037238646,1.2759305,0.8044255612271234,0.15096842321851783,0.13150293,1.3390079,0.7226909651220963,0.13639742265898458,0.14428388,1.3824018,0.6622584111432963,0.19066059238579705,-0.07492199,1.247246,0.38378198518111833,0.2196356320370948,-0.5126055,1.2298586,0.7189612036356315,0.16302415112821483,-0.059038434,1.4150428,0.5788838400136914,0.17002144633574395,-0.17298031,1.2071196,0.4335529642374064,0.21631598520069253,-0.4434224,1.2716657,853.9678538283131,28.49024917211748,547.98535,1015.78754,853.2067363166793,16.178629085318377,311.06226,1650.0,853.6168726628949,19.6420814204029,0.0,1650.0,852.5024448906598,29.687605184291105,560.07324,1017.8022,850.9968024184865,25.86221106947748,732.52747,961.39197,-0.1270100163502099,0.06958436120656343,-0.48382568359375,0.134521484375,0.16867485602322482,0.039371847732917346,-0.0367431640625,0.4136962890625,0.983432732748439,0.01221210677001646,0.84161376953125,1.056396484375,-0.4445742984717789,2.5800874168161196,-56.24801635742188,58.909759521484375,2.6222422498369933,2.7636958940019545,-34.01947021484375,40.374755859375,4.130792224762961,2.889757554727729,-83.23928833007812,61.02569580078125,1.0,0.0,1.0,1.0,1.010749791784707,0.10312258087581842,1.0,2.0,1.0,0.0,1.0,1.0,1.0009598028379203,0.05183179567192721,1.0,4.0,1.010749791784707,0.10312258087581842,1.0,2.0,65.97123312991704,0.8345513899134128,64.56,67.44,,,,,,,,
23,1679919641.929917,373.51484244013756,1679918965.831,1679920287.817,-inf,,-inf,4.3254933,0.9521469499472459,0.4620113436366878,0.0,4.302632,-0.18973913452962346,0.7277307739031611,-1.4741707,4.2828984,-inf,,-inf,4.41208,-inf,,-inf,3.333894,0.9447245625393305,0.3448959440820733,0.0,3.5149832,-0.444505980163767,0.5579255263475351,-1.2299957,3.371076,-inf,,-inf,3.449789,-inf,,-inf,3.6234822,0.8623143608804961,0.36645219875715956,0.0,3.6589408,-0.23801395127571193,0.5234900240673793,-0.92804825,3.6294296,-inf,,-inf,3.6297731,-inf,,-inf,2.818892,1.157111614743021,0.29508330982058073,0.0,2.96023,-0.09373988014278424,0.385825349504296,-0.44594538,2.8810728,-inf,,-inf,2.946659,-inf,,-inf,2.2879536,1.0651691105832146,0.2590681547350959,0.0,2.4834986,-0.28414996164567796,0.3535040262529492,-0.8177835,2.335523,-inf,,-inf,2.439236,853.4555105250462,37.20285657621715,0.4029304,1650.0,857.0231316354098,157.62200789956097,0.0,1650.0,853.543932838094,10.201391877744287,750.65936,1363.1135,852.9256099999589,93.8176047600814,4.029304,1617.7656,851.1730626598678,25.81138890683072,734.94507,1391.7216,-0.05997651812736099,0.07484382303119112,-0.3388671875,0.08380126953125,0.11296040214006922,0.02307948417987898,-0.07647705078125,0.2835693359375,0.9973092198534402,0.008544846989583996,0.92724609375,1.05419921875,-0.4874511855570595,0.8871676769356466,-31.3726806640625,28.03802490234375,2.5720846163107476,1.5129417961792135,-9.891815185546877,43.0364990234375,4.14085944549902,1.5653029557855107,-59.29107666015625,101.52755737304688,0.9988982059034839,0.03317503489543257,0.0,1.0,1.0248690667499358,0.2583573842881312,1.0,4.0,1.9255882793479613,0.3680418503626697,1.0,4.0,1.0033053822895484,0.09952510468685562,1.0,4.0,1.5265585689877965,0.5512599516444693,1.0,4.0,95.63300325206968,0.7098853316412348,94.42,97.02,,,,,,,,
24,1676726173.15732,338.4932898212393,1676725586.893,1676726759.384,0.610414826524059,0.3250022487143481,-0.31011927,2.002892,0.3704230326444235,0.44763587326340887,-0.8571121,1.7616574,0.31377365991470224,0.4255464117122164,-0.8508162,1.6925489,0.4235067175491543,0.4211519124326951,-0.6518127,1.980393,0.45716870332130805,0.24150430570238593,-0.3310766,1.5140212,0.10957794802427151,0.3556647812636548,-0.97344583,1.4201685,0.02342283123224658,0.34462613189585334,-0.9643227,1.1892786,0.21551897329683317,0.31291131637788583,-0.8324855,1.4408097,0.7063976608789135,0.20782163859147645,-0.014479102,1.3558527,0.2541948861661354,0.24682349313301175,-0.4779665,1.1230757,0.1713495332403729,0.2712832335346709,-0.6590963,1.2775398,0.4489153959986146,0.2845168599587165,-0.4109431,1.3784518,0.36311428065053203,0.15812975868365636,-0.035378426,1.3798141,-0.12939578407072122,0.15872567260420564,-0.55386895,1.1025871,-0.24355916939699057,0.2003138422215264,-0.6752078,1.154019,0.19730940577856518,0.19405304186541383,-0.39647627,1.1957107,-0.10243487876970017,0.20817184330172245,-0.81789494,1.2679287,-0.4467209160300375,0.21846445350067548,-0.9486542,0.9897099,-0.5836573384889215,0.22473218541406784,-1.0997878,1.1755621,-0.15909140406335123,0.22063699803493295,-0.7292033,1.4207509,851.9913138930468,17.373900490284626,481.90475,1182.6007,853.7412377571793,16.439875287516966,0.0,1650.0,853.4779371331834,15.326797628265584,24.175825,1444.1025,848.1514699295711,15.47660083477073,453.69965,1151.978,851.8180675173696,25.75392797022997,722.8571,991.2088,-0.06984468793525729,0.03725697097181187,-0.22271728515625,0.19720458984375,0.07079557191950897,0.02214266377434338,-0.10791015625,0.25823974609375,1.0020345035032072,0.004657542381577069,0.865234375,1.06134033203125,-0.5142469741904542,1.253700672829988,-30.69976806640625,27.492218017578125,2.695793860484527,1.6509532512874217,-32.46429443359375,42.700042724609375,4.171038196278251,2.0722055436509366,-89.49737548828125,65.16036987304688,1.0,0.0,1.0,1.0,1.007188134688826,0.08447772100127321,1.0,2.0,1.0008660403239549,0.043641081649488454,1.0,4.0,1.0021651008098873,0.07948222664391082,1.0,4.0,1.007188134688826,0.08447772100127321,1.0,2.0,44.80894032982169,1.0469482240108816,43.05,46.63,,,,,,,,
25,1676812967.5226452,315.3718103437885,1676812421.365,1676813513.758,0.6836916908599708,0.4226464719887791,-0.48749018,1.7803776,0.9614033922815249,0.33410438310921925,-0.4754624,2.1421945,1.1071814256682806,0.3790119796576426,-0.33120793,1.9410883,0.7742950252605805,0.43531581789932317,-0.4100025,2.100211,0.5354971068323763,0.39818947204100336,-0.7511641,1.6546005,0.548261575106346,0.3045683613873405,-0.7406286,1.4543395,0.7809404387505362,0.33819194254722795,-0.6520561,1.5101959,0.5859980604260716,0.40560623066217844,-0.7233054,1.6548741,0.6111387339051809,0.32036751717933454,-0.4756334,1.4091116,0.5945608200597579,0.26504887748050465,-0.5868264,1.2542504,0.7250756081321117,0.27914442886303104,-0.31849918,1.3246224,0.6505027943079329,0.3192604490612579,-0.33158955,1.4178295,0.35937497211100866,0.1840352961177205,-0.23710462,0.93746555,0.6028769886321057,0.15379261502660133,-0.006071252,1.0807486,0.4705578588741387,0.2736654025345969,-0.4156937,1.0259163,0.3862050189400806,0.17753926952711646,-0.17428848,1.0037465,-0.013705165412366448,0.1902184645586098,-0.7795579,0.7883828,0.3547312877482681,0.18891777643278518,-0.48421618,0.8545752,0.15439365115383857,0.2829995702197037,-0.78349024,0.7589325,0.013838825280588737,0.1749085804484211,-0.6079775,0.5917913,852.6254772595037,37.836347125937095,558.0586,1124.9817,855.2236926167474,32.63611831406521,446.04395,1316.3737,853.1540124685005,14.707355864401933,734.5421,987.98535,850.8049008834239,34.289661665241475,564.90845,1125.3846,852.4380292589159,25.839112199749326,726.4835,979.92676,-0.06471694926065899,0.01703269389718335,-0.285400390625,-0.0220947265625,0.10618660424230898,0.020526158165360252,0.0360107421875,0.21710205078125,1.0004010132641936,0.00402122854445276,0.95458984375,1.0283203125,-0.46170784222925904,0.6243948350151582,-10.190887451171877,13.26385498046875,2.698084832250095,0.8052607952997536,-21.555633544921875,21.18927001953125,4.2059290273471115,1.3283441416637558,-28.538970947265625,37.959747314453125,1.0,0.0,1.0,1.0,1.0678564788994236,0.2514998346590511,1.0,2.0,1.0008365867261573,0.05009059616912356,1.0,4.0,1.0,0.0,1.0,1.0,1.0678564788994236,0.2514998346590511,1.0,2.0,28.520818355732263,0.8016235782374054,27.22,30.03,,,,,,,,
26,1678801342.695249,293.9225326839307,1678800833.8,1678801851.821,0.7113702381582654,0.40355493105103146,-0.57014257,2.2901661,0.41184988393860117,0.432231379583118,-0.8055598,1.564037,0.7946208203010492,0.47269064459999904,-0.929062,2.5417707,0.9930951929385264,0.29192116427360104,-0.21138117,1.7351062,0.4452756578788618,0.30420541579325394,-0.6118553,1.5254495,0.028964096840793322,0.3421458656741692,-1.0195037,1.146593,0.3378962642619679,0.40061462890244276,-1.011771,1.2186426,0.8514874201729324,0.3102908493700676,-0.20947075,1.2674454,0.5924776319241634,0.2563008817770933,-0.3762305,1.4792411,0.21277200109571037,0.2383553315423092,-0.4302267,1.1739419,0.40888320903512415,0.289811782517194,-0.50782317,1.2792038,1.0334365932519975,0.3523227747623217,-0.08999685,1.4538424,0.5207141987609343,0.10365706040247227,-0.03806688,0.90513927,0.8056793004424625,0.10222159280152969,0.38324285,1.1101624,0.6659991829963385,0.11510649340392516,0.3168923,1.0723703,1.1185050624199981,0.2560650180041359,0.15612163,1.5415001,0.17516094592971035,0.11621564628249532,-0.30130473,0.65259147,0.6785495899092039,0.1414931634759296,0.26003158,1.1770511,0.4665339836083924,0.12340710896439407,0.09730997,0.925843,1.0450494909559516,0.32996777086614976,-0.0735285,1.4216609,852.4376496080827,32.27243250802682,0.0,1650.0,853.7273546935709,25.026879525215808,0.0,1650.0,853.0594404636975,15.55291440496507,752.27106,1190.6593,837.1815646249055,186.31364414731982,0.0,1650.0,850.92332415954,25.932468476024415,732.9304,974.68866,-0.3604561161786437,0.013410622722712325,-0.511474609375,-0.19598388671875,0.17726961598589885,0.00945148670997733,-0.01947021484375,0.25604248046875,0.9245907859905098,0.007158685855927886,0.6865234375,0.97021484375,-0.4265574888904649,0.4987461138533702,-13.749847412109377,19.27520751953125,2.5433215655699857,0.7861373631427315,-38.36349487304688,26.45294189453125,4.140037518996256,0.4667179463249461,-4.80010986328125,12.119903564453123,1.0,0.0,1.0,1.0,1.0090764013564733,0.10948186647726545,1.0,4.0,1.0,0.0,1.0,1.0,1.0,0.0,1.0,1.0,2.4124856019510563,1.2920218033456392,1.0,4.0,24.591749258379828,0.4992977406547017,23.84,25.55,,,,,,,,
27,1679832170.7715685,300.7491417319416,1679831649.8,1679832692.081,0.8654593202958341,0.44100181487957973,-0.37645385,3.9921515,0.4981413905702649,0.5113902372056711,-1.0618683,3.563153,0.5980390128181127,0.5305951940113495,-1.1451768,3.929941,0.6914213922541799,0.27304974846445335,-0.43949947,1.9738637,0.6776230569330723,0.33354070245633877,-0.24942806,3.034608,0.1607241762072036,0.3861004702315746,-1.0578291,2.6262944,0.23801041372729942,0.41550392497850924,-1.2087234,2.954141,0.4053141964863021,0.2668466905385719,-0.3584278,1.494401,0.9952389545099313,0.3394399633344328,0.027079107,2.9831848,0.2779869528547007,0.2783563001054057,-0.45739508,2.8113744,0.3440468342996738,0.29642027251314434,-0.5669603,3.0250268,0.7916691329244946,0.1525891337867555,0.03145781,1.6070861,0.5220103755228106,0.14020090899370008,0.075657554,2.4924576,0.020751739076959055,0.28853060168888917,-0.66633886,2.1062064,0.020012360139082877,0.2360559326103883,-0.50035435,2.4537077,1.0760283917905487,0.22841369989954458,0.2475252,1.5103976,0.12804572812157808,0.15731675506755768,-0.45514593,1.9262323,-0.2801692243980768,0.31607005236416125,-1.1047579,1.5060483,-0.32321884546933144,0.3022770694671582,-1.0323668,1.8640356,0.9803963647063625,0.263914600381483,-0.06406621,1.4116441,847.638952492954,20.50993739649643,577.3993,1133.4432,854.1537715205836,9.483950463449148,755.89746,1162.8572,853.6797668966235,11.107263497472685,788.93774,1196.3004,851.3793728150525,41.43420628152852,491.17215,1134.249,850.1486740564684,25.64376670478791,720.4396,971.4652,-0.2836769567216546,0.029202677986047167,-0.3887939453125,0.09173583984375,0.1659488266139322,0.02105250543378893,-0.0155029296875,0.32769775390625,0.9529246307504221,0.007352546456161224,0.90869140625,1.03131103515625,-0.4855575731128977,1.240155895710221,-21.40609741210937,36.180267333984375,2.5678043417115846,1.2630916048025465,-39.36538696289063,22.258453369140625,4.149712673035534,1.904717572918291,-27.68661499023437,34.221343994140625,1.0,0.0,1.0,1.0,1.0214979042923489,0.14503727295924643,1.0,2.0,1.0,0.0,1.0,1.0,1.0,0.0,1.0,1.0,1.0214979042923489,0.14503727295924643,1.0,2.0,21.939149422540567,0.49516581535893117,21.06,22.78,,,,,,,,
28,1675511215.0556083,438.09924547307236,1675510456.323,1675511973.9199998,0.7292521105292656,0.3283462410334964,-0.44165343,3.9830084,0.23272854616527763,0.494174402975816,-1.0853119,2.6446683,0.397871615398429,0.5366117371131451,-1.127346,3.7338607,0.5395946902466642,0.35566824115661383,-0.44832972,3.652896,0.7259064592895353,0.2275705896286066,-0.12001672,3.0307093,-0.04082854341939777,0.3928121004632677,-1.2327336,1.7410737,0.04830253809853166,0.4290100585271227,-1.0757864,2.7639165,0.429882896548228,0.2682972347273491,-0.361003,2.640963,0.9462662469760867,0.22501411079430322,0.19764702,3.0204926,0.08141973870554907,0.3319587441317867,-0.88392496,2.0771556,0.16172816082764743,0.3968260076435016,-0.8722096,3.009534,0.6349193794460635,0.2553562904107342,-0.2084799,2.7858894,0.6044764595041193,0.15199913308947047,0.15379849,2.5296464,-0.24757254558352956,0.17997025317135382,-0.8342977,1.310513,-0.2895426681226778,0.21784748381821567,-0.78092235,2.2568471,0.3611424219448712,0.15454466607596967,-0.08431232,2.1415787,-0.08574420871663417,0.21043708992925977,-0.8806066,1.9921122,-0.5788865559469861,0.19214630585814887,-1.1673161,0.74376327,-0.6776241378294113,0.22164772663660032,-1.2241634,1.6683223,-0.14783999660807087,0.22386073054894665,-0.8093509,1.5523757,855.7378053986833,24.556319659140897,0.0,1650.0,853.2244484942298,7.669585982046943,767.98535,1135.8608,852.9640634802653,7.079742775792823,743.00366,1047.2161,852.3320838782556,16.362096476013182,599.15753,1126.1904,851.3643175691647,25.780781556052233,730.5128,967.4359,-0.07392986595514729,0.029520475521507585,-0.31085205078125,0.1090087890625,0.07708500426444187,0.025028626027747615,-0.290283203125,0.34918212890625,1.0002949172503681,0.005187850761108329,0.86456298828125,1.08526611328125,-0.46710994324585864,1.3781366180468142,-74.09515380859375,32.97271728515625,2.5425739399609957,1.4111565411877083,-30.811920166015625,52.434844970703125,4.139833505710308,2.155709286505115,-77.77374267578125,160.90835571289062,1.0,0.0,1.0,1.0,1.0023419102649056,0.056030109401792504,1.0,4.0,1.0,0.0,1.0,1.0,1.0,0.0,1.0,1.0,1.0016058813245068,0.04004130280505788,1.0,2.0,81.92195408129123,0.8301960501087604,80.45,83.45,,,,,,,,
29,1675341134.211188,332.5118355542631,1675340558.862,1675341710.08,0.667540125625986,0.43965621639917535,-0.39227816,4.2244935,0.8500330952852564,0.3829372978254775,-0.34959698,3.7947865,0.6666947308662452,0.3863084062014353,-0.66377085,3.8430247,0.7153931812666323,0.4417975995163254,-0.5388714,4.154885,0.5360971582693291,0.35889062230242696,-0.45326394,3.2106137,0.5453070555097113,0.38187237440801114,-0.5008294,2.8262544,0.32021598744897734,0.31938693097023013,-0.63945496,2.8662078,0.5860990835468047,0.3895385813386123,-0.72846687,3.24726,0.8394864889248265,0.30509403266153295,0.02098345,3.255929,0.6150351346443719,0.3322227937774326,-0.3964614,2.9127538,0.3941232052851133,0.25860311391252033,-0.48382443,3.0677307,0.8341538320373562,0.3352874216950908,-0.21917664,3.5075936,0.6303502397954083,0.1715960845179862,0.17620468,2.696923,0.3804687086301335,0.14937792803657368,-0.07465645,2.3240645,0.2146621021974667,0.1766612130354234,-0.24997702,2.3592932,0.6218973868722538,0.18195326900015163,0.1152267,2.7228906,0.3709656753148566,0.18610842976568756,-0.16257472,2.1100566,0.26064336092750606,0.20058917429256903,-0.42683986,1.7512958,0.04464586267759814,0.19038586650158276,-0.6194305,1.7601633,0.3412605015327917,0.17722855852512429,-0.2205892,2.1551929,854.5802058366014,22.43293319056333,650.7326,1025.4579,853.5415680568494,22.635443875187796,0.0,1650.0,853.4123515246403,9.034433880672198,713.1868,986.77655,853.0737002520232,22.725190357248476,637.03296,989.59705,851.5686348712806,25.9874707590154,734.94507,965.82416,-0.12923286854860583,0.02796040263508804,-0.2506103515625,0.3853759765625,0.13292373480045527,0.015745254953105563,-0.0147705078125,0.3914794921875,0.9905558160262864,0.006026530862926661,0.85089111328125,1.079345703125,-0.4509277953881117,0.7163679689132368,-20.35186767578125,19.73876953125,2.524228540981459,1.5220911201114866,-61.41448974609375,35.41015625,4.103108487196216,1.8516868624588572,-85.55709838867188,51.08154296875,1.0,0.0,1.0,1.0,1.0404661758056122,0.19705018357649956,1.0,2.0,1.0005289696183741,0.03983256906739565,1.0,4.0,1.0,0.0,1.0,1.0,1.0404661758056122,0.19705018357649956,1.0,2.0,36.635133792342444,1.3303296788931884,34.34,38.91,,,,,,,,
30,1676722174.0026484,271.17652917840934,1676721704.346,1676722643.679,0.6147157288342737,0.35147134807217467,-0.37564665,1.7526298,0.7477331772273719,0.39845582241725463,-0.647957,2.4229162,0.6456720791598277,0.3856470229004622,-0.62725204,2.2403908,0.6756659797171322,0.3648549665792256,-0.42631292,1.7812576,0.5144003699931077,0.33185238760513913,-0.40013325,1.6018454,0.20459259967689258,0.20555931883061512,-0.50341314,1.2600375,0.3187614522965337,0.347921700121493,-1.0800438,1.2428759,0.5971580075531653,0.3244111270567108,-0.56233895,1.5864211,0.6523928514572301,0.2658941157233468,-0.3789601,1.5555295,0.4305440997565556,0.1693009471879256,-0.21783294,1.0010381,0.36485711711271696,0.26571207448015594,-0.532465,1.1947259,0.8269866115274455,0.335650539110537,-0.17578848,1.7079895,0.38691318002228975,0.1319371620378508,-0.095892295,1.2721479,0.9521560202295465,0.342480469762627,0.19099633,1.3159581,0.16220312232614145,0.1010970259710999,-0.3019206,0.6763184,0.5624640734166771,0.11488072814804838,0.08902873,1.2241517,0.13817617022957399,0.15395820261123094,-0.42544302,1.306337,0.7587259913018659,0.3379450400791314,0.008901825,1.2395225,-0.10939593862628937,0.11026009894909189,-0.48083448,0.64084554,0.30911248033999017,0.1258127836204226,-0.117315255,1.1590794,854.1198664025413,22.827203176053818,647.9121,1053.2601,849.8186805202589,136.88059302888473,0.0,1650.0,853.8112655856836,22.69738881353243,0.0,1650.0,850.7175022616053,30.04190584650078,613.2601,1017.3993,851.232936986014,25.87321591425857,714.7985,967.4359,-0.10870644622101576,0.04151974742064963,-0.38873291015625,0.04241943359375,0.10279404325376787,0.02236766582413243,-0.08184814453125,0.25445556640625,0.9961027513037678,0.007805091852963603,0.8887939453125,1.03668212890625,-0.4370842304940645,1.6915675642627217,-53.45916748046875,37.750396728515625,2.631686418574248,2.0971748170549676,-30.96893310546875,40.50933837890625,4.141273449185904,2.3590550726863646,-88.93661499023438,80.54763793945312,1.0,0.0,1.0,1.0,1.007134314098116,0.08416317698438591,1.0,2.0,1.3717584375642908,0.5689525618669516,1.0,4.0,1.0006485740089197,0.044105647730320816,1.0,4.0,1.007134314098116,0.08416317698438591,1.0,2.0,49.528375356977214,0.5608102725179848,48.5,50.41,,,,,,,,
31,1677159450.1700542,92.73217906125437,1677159289.549,1677159610.782,0.6369227348924028,0.6266207773972057,-0.48472926,4.1171284,0.303832519670759,0.4925357532031784,-0.688629,3.7168858,0.26417952959277996,0.6237358591985479,-0.74085236,3.812158,0.6861097034991865,0.6143547160324312,-0.3844792,4.2292686,0.4315162714697278,0.4534038212846425,-0.4085562,3.1322737,-0.06576610197468667,0.4161000678254408,-0.92371225,2.761267,-0.07031035047164419,0.5044009301736659,-1.089057,2.8369536,0.4449210898940504,0.4550730070576531,-0.48891553,3.253212,0.7623289165712699,0.4430431500863318,-0.1860636,3.2046912,0.19095025917521638,0.43430204919499393,-0.6217546,3.0323484,0.1829557071041461,0.5120156498082322,-0.67279756,3.0752385,0.7186767499843901,0.45773578714815066,-0.22435457,3.4008334,0.4355459410816549,0.3103887108240559,-0.0733034,2.6271143,-0.029767572727938493,0.2879390087551355,-0.47670186,2.2584078,0.36406334231607806,0.2869404837435604,-0.10951773,2.3533661,0.4274631090245063,0.3236130347926292,-0.05121702,2.7748396,0.015253179779797845,0.2985641789790677,-0.49308562,2.0546415,-0.3319780756159185,0.2939544315513783,-0.8397417,1.6707611,0.1707204727636463,0.23438706708897572,-0.24832262,1.7465342,-0.0031316390852900266,0.29691894453290324,-0.464078,2.1686752,851.0650927168941,34.98703308136846,15.714286,1553.6996,853.1117696346606,14.098735787448398,350.1465,1039.5604,852.717350976226,22.137756206168316,25.787546,933.1868,850.447470015082,40.02270612173806,25.384615,1576.6666,852.4166039330669,25.83585772054607,734.1392,966.2271,-0.2609929930443528,0.01897831299740606,-0.3983154296875,-0.17791748046875,0.2270622040706122,0.019131806873288817,0.19207763671875,0.40924072265625,0.9484473353602653,0.010514980719044635,0.70684814453125,1.00244140625,-0.4779157091507043,0.842332173197939,-22.50518798828125,29.0399169921875,2.5427546456877104,0.785092527832623,-8.56842041015625,17.727508544921875,4.121325544471647,1.3969185757677567,-25.37628173828125,31.44744873046875,1.0,0.0,1.0,1.0,1.0401337451705965,0.19627384027603953,1.0,2.0,1.0,0.0,1.0,1.0,1.0,0.0,1.0,1.0,1.0410817863950987,0.20320082821304625,1.0,4.0,58.80206489495092,0.19700762397205288,58.47,59.16,,,,,,,,
32,1677244040.0266123,330.37091850624057,1677243468.062,1677244612.4,0.9446632474361574,0.4272083791475875,-0.30385596,4.260335,0.7705653387769841,0.3924913615427324,-0.69920534,3.564402,1.034162605393272,0.41718656738964793,-0.6035382,3.5319426,1.0482299665340065,0.385402974724823,-0.20125487,3.748077,0.5880032153036808,0.38585641785806113,-0.6513941,3.278708,0.4600865186632748,0.3267222680066267,-0.69254875,2.575423,0.6229897821840409,0.36088476807083375,-0.7224164,2.542968,0.6605864312744467,0.34783997143300854,-0.57096386,2.7428973,0.6727380963136034,0.30627966486252417,-0.35561153,3.1030045,0.530626142496773,0.25522339816565415,-0.32939747,2.9334857,0.6005812913186409,0.29387545467482284,-0.3915177,2.8615391,0.7026637007353851,0.29536432205922786,-0.3304644,2.7225456,0.4743465009981218,0.2238633693960033,-0.11678727,2.7692251,0.6390914714475704,0.21891412686989495,0.15591985,2.126487,0.6720529130836125,0.21313696570425064,0.17061111,2.03173,0.5383833750934256,0.22504551160722516,-0.019267954,2.2305362,0.18383539031340151,0.2603921077921378,-0.43209422,2.187874,0.40462677079684384,0.2383217884833216,-0.1323413,1.519905,0.4049326717806396,0.2785936001449541,-0.13825613,1.5042164,0.23095273590598914,0.2472538104453918,-0.34947637,1.6461644,852.4624785315324,37.16052713583693,0.0,1650.0,854.2108750069872,17.77552501075118,1.2087913,1650.0,853.3337518392352,21.26474708258233,0.0,1650.0,850.2254708558951,39.348475594724434,0.0,1650.0,852.536730734823,25.79802674720092,730.5128,983.95605,-0.15156145809189756,0.02895191823241647,-0.4205322265625,0.013671875,0.2423405092209716,0.029905999233300524,0.03509521484375,0.4493408203125,0.9689337166292528,0.010665011548384609,0.80255126953125,1.06005859375,-0.37305114482445606,2.6673516384028244,-87.01507568359375,56.50970458984375,2.5750086584390854,1.9629552795044498,-22.68463134765625,29.286651611328125,4.176748603771858,4.393496969859599,-140.2947998046875,137.633056640625,1.0,0.0,1.0,1.0,1.0568963493703787,0.23393201099607755,1.0,4.0,1.0032833624837907,0.09554798220194415,1.0,4.0,1.0025734462710791,0.08578332673762683,1.0,4.0,1.0555652564715448,0.23023976122820475,1.0,4.0,46.9583502176981,1.0165767858192971,45.22,48.7,,,,,,,,
33,1675945790.083891,325.0464006610732,1675945227.024,1675946353.04,0.7668257159765504,0.39604346922441375,-0.28831702,3.8213627,1.0891511825567064,0.42031080102641577,-0.5741312,3.8588712,1.3424681837135244,0.32335860672469047,0.19578053,4.0831127,0.7436721677382093,0.45111294554620524,-0.5439545,3.8207028,0.599179878676705,0.3479422496210497,-0.38001665,2.9020817,0.7429469052466681,0.37699390452194487,-0.6822305,2.8930514,1.0747002061845485,0.2726432412329718,0.028609898,3.1371362,0.5548129378718001,0.38760845649387426,-0.55289954,2.8825917,0.8961942619565537,0.2990317423440685,-0.09889856,3.0554905,0.7904977903190402,0.3256420358931695,-0.30454698,3.051727,1.107153006696649,0.23565444076243336,0.19674335,3.0688648,0.8637875223762193,0.3007234119221492,-0.20152788,3.0526357,0.6582453234067961,0.16836362365212545,0.16540562,2.3653846,0.35503175282057303,0.1674608861727209,-0.10638384,2.377435,0.8350670298632755,0.1779721643107931,0.3340654,2.6266243,0.5841908977638155,0.1839009399071182,-0.035106286,2.3564548,0.39744389083257065,0.15667837551257513,-0.09742589,1.8028399,0.0954375584267861,0.17849113294489227,-0.5166534,1.7853082,0.39651615538741974,0.1533060021143424,-0.1426682,2.0088763,0.32009590929097087,0.1990382431314645,-0.32986364,1.7865045,852.5525310006144,57.90342492639309,459.7436,1070.586,853.4551684167112,20.957285311689596,648.71796,1159.6337,853.8522420612767,26.10617180458925,611.6484,1181.392,852.4144543397264,38.05215994269739,461.75824,1031.5018,851.0541041353297,25.924263632222292,732.9304,966.2271,-0.2727631128096801,0.033684258927387876,-0.6221923828125,-0.14813232421875,0.17301722017064153,0.09625493612834114,-0.0140380859375,0.46630859375,0.9493692902583165,0.02170956908404593,0.7452392578125,1.032470703125,-0.44052980540086617,2.2068290042445993,-67.02957153320312,60.78643798828125,2.595365263272139,1.4197745855603916,-26.27349853515625,34.19891357421875,4.081869208289105,2.671847628538974,-59.403228759765625,75.05218505859375,1.0,0.0,1.0,1.0,1.0448194509493625,0.20690769029690384,1.0,2.0,1.0,0.0,1.0,1.0,1.0119037575962089,0.18715927802975474,1.0,4.0,1.0448194509493625,0.20690769029690384,1.0,2.0,62.161690060129686,0.8820821829561277,60.7,63.77,,,,,,,,
34,1677067378.2636118,304.69808882354727,1677066850.621,1677067906.003,0.7463808502755971,0.40800271326693,-0.3503135,1.7928708,0.6664659330643733,0.4643401788696598,-1.0821197,1.5713729,0.6638200170901772,0.4541387075797889,-0.8703308,1.6006428,0.8608660922382622,0.36713470310724744,-0.2239409,1.8953274,0.5764942359826902,0.3563504472208902,-0.3059525,1.5604186,0.27461246958121116,0.38152443272382897,-0.88791585,1.0767566,0.26863071947106526,0.3765769858281945,-1.1586134,1.0628759,0.6331738261713655,0.3444726970227327,-0.3537835,1.6121978,0.8170945951853846,0.27132174110896046,-0.100646935,1.5868659,0.3536344080119954,0.27633544083645395,-0.597037,0.9327951,0.3401799205092054,0.26716650314505475,-0.7130744,0.8927174,0.8204848589994752,0.26737718295288593,0.026298624,1.5454534,0.4288698885937588,0.13768300738519795,0.03701837,0.9701189,0.12111132229307368,0.1585319635784268,-0.46101338,0.62065667,0.16928635394136135,0.11218947881484508,-0.31700927,0.5117562,0.4892309517724435,0.13068756273312618,0.047598008,1.0015662,-0.10858503103926599,0.12469451031064858,-0.5521962,0.39738533,-0.1445160348472607,0.2042272968236622,-0.66392064,0.39777797,-0.1788785716386867,0.1272623223304079,-0.6186587,0.38662952,0.04707427587658796,0.1302230920714208,-0.42006397,0.43346548,849.0950448707985,17.0228429688856,622.9304,950.9158,854.2190573806525,8.96935618159462,789.7436,911.8315,853.8473110921759,8.94494175901882,796.99634,912.6374,846.6143712826109,16.956636794181687,605.2015,952.9304,850.8594626339966,25.81978521695422,724.4689,963.4066,-0.07760064055298757,0.04159647326540906,-0.28033447265625,0.04736328125,0.13712259338005736,0.01359030287365164,0.10174560546875,0.176513671875,0.9951826326977529,0.00434983422122338,0.9498291015625,1.0235595703125,-0.47906274689867684,0.24475291517868678,-2.863616943359375,8.531036376953125,2.5781330155880844,0.5453790588931038,-2.848663330078125,18.0340576171875,4.147734896245273,0.4750564043329786,-8.441314697265625,9.88433837890625,1.0,0.0,1.0,1.0,1.0009621054591726,0.031002948172124307,1.0,2.0,1.0,0.0,1.0,1.0,1.0,0.0,1.0,1.0,1.0009621054591726,0.031002948172124307,1.0,2.0,74.48389267868784,0.6314098918035845,73.39,75.58,,,,,,,,
35,1678712357.198154,243.48804749394128,1678711935.027,1678712779.085,0.7983809121504513,0.5909015430546418,-0.32335064,4.1390476,0.39383359763769205,0.5384091413290711,-0.7507595,3.5555432,0.6800903999999999,1.6394695230502162e-12,0.6800904,0.6800904,0.800996253278559,0.6433539626747365,-0.15620722,4.2065053,0.6896608205343565,0.394388047912099,-0.18748707,3.2894187,0.15508270014434694,0.4068687660150422,-0.6667551,2.5528595,0.8558904999999996,3.0628892261061396e-12,0.8558905,0.8558905,0.9176667639181024,0.40990771637735046,-0.27899224,3.3801494,0.9757478717123024,0.3981037509266862,0.085852586,3.2241595,0.5593433690547261,0.4300531904869028,-0.20711185,2.9288843,1.2215710999999998,2.3128210946151625e-12,1.2215711,1.2215711,1.0523208365005106,0.4310646990710079,0.08034173,3.6227837,0.9028111286555836,0.25210127270710747,0.38615662,2.7337275,1.1061234462011342,0.12318385516771112,0.71345866,2.084638,1.2973836999999997,3.8791267783147934e-12,1.2973837,1.2973837,1.2327375731130301,0.3330359139956517,0.28639138,2.8438206,0.49015337610395665,0.32139330149667744,-0.50183356,2.0839198,0.9114139138834254,0.11075483761829341,0.581168,1.5656897,1.2784722,4.3320986516841226e-13,1.2784722,1.2784722,0.9388611533473358,0.321799743525569,-0.016089916,2.3226776,847.8634590777607,17.648713834140835,618.9011,1082.674,852.9614166004209,15.686719250210786,752.674,965.42126,802.8905518173531,202.51083599366854,0.0,1650.0,850.2510760866969,36.859394554335914,380.3663,1602.4542,849.7802999241227,26.014535087002447,723.663,971.8681,0.05882752714366708,0.031484053909473085,-0.25775146484375,0.24951171875,0.1287511662625021,0.0328106842537022,-0.24169921875,0.42236328125,0.996251042736743,0.00805510130426913,0.8424072265625,1.09771728515625,-0.3695522621278333,2.0583550733793867,-60.711669921875,49.997406005859375,2.4882604308574687,1.427654827319669,-38.35601806640625,42.505645751953125,4.082970579417251,3.1389447444154364,-120.07003784179688,114.44000244140624,1.0,0.0,1.0,1.0,1.0054160244439354,0.07339422345671721,1.0,2.0,1.0,0.0,1.0,1.0,1.7194111092561606,1.168119846902839,1.0,4.0,1.0054160244439354,0.07339422345671721,1.0,2.0,35.40127822059332,1.184887612847428,33.33,37.44,,,,,,,,
36,1676548103.7092402,358.6324019653397,1676547482.618,1676548724.931,0.7896552487994694,0.4404164598883,-0.31591058,1.8796064,0.35821641306525087,0.35025109411063277,-0.82378554,1.8487494,0.6346575286621043,0.41714197894332755,-0.7071053,1.7756866,0.7356221268328372,0.45474689266599455,-0.4751125,1.9632788,0.4835310010133396,0.36570936145603417,-0.53584474,1.6194389,0.0632524274116504,0.27474904890305096,-0.66623074,1.1728489,0.30171880161254117,0.3382871466600652,-0.762756,1.1825725,0.45928202748835456,0.382575236750115,-0.6726823,1.5971948,0.7051460560409988,0.2905227826296863,-0.32476428,1.4696678,0.3011204031264299,0.2008425111435442,-0.40599635,1.176528,0.45086232310518715,0.2291130167753848,-0.43313324,1.0772499,0.6884365357597861,0.31034920175619124,-0.2341742,1.4796106,0.6679351395987912,0.1480554814289273,0.0,1.1877161,0.7318109010046465,0.18751961362673408,0.0,1.3076924,0.7161574141994282,0.18255300938349692,-0.07325733,1.2070318,0.6250199507730404,0.13962063612124137,0.0,1.0382644,0.47983118626691107,0.16643716177752255,-0.16566424,1.1136148,0.5891750848161794,0.17841030921959078,-0.034085605,1.1959773,0.5374488331229761,0.17661481599999607,-0.28081658,1.0915656,0.39002386496006947,0.13075098223638795,-0.16182499,0.8498415,845.8012945694164,79.50219723825671,0.0,1650.0,847.3433335710449,83.49871510001199,0.0,1650.0,851.1346530303565,81.67127726882664,0.0,1650.0,849.5010399247739,86.07336117030343,0.0,1650.0,848.8018342228563,56.092678872427925,0.0,1650.0,-0.32348420221824864,0.05204265369441735,-0.85968017578125,0.1334228515625,0.20431656139870047,0.06574822243319164,-0.37408447265625,1.1986083984375,0.9170949472782336,0.1521851413569659,-1.08294677734375,1.1495361328125,-0.3879493826611447,3.9842571747264004,-98.19290161132812,99.66583251953124,2.771412800767261,4.094366182238552,-124.8626708984375,145.66314697265625,4.200033962326089,4.002163577920053,-140.09292602539062,92.96661376953124,0.9927585152055358,0.0847883520935455,0.0,1.0,1.0388023333087204,0.3244304759244862,1.0,4.0,1.0379848313836353,0.3344517008126992,1.0,4.0,1.0355323256083797,0.3243011064185356,1.0,4.0,1.0429715931266548,0.3469366270565651,1.0,4.0,63.93530255482537,0.8818599517889505,62.45,65.5,,,,,,,,
37,1676030878.4222405,301.5297159837193,1676030356.168,1676031400.677,0.5986037222426757,0.36398973067371565,-0.38464284,1.9681114,0.25563766262067905,0.5392990479201766,-0.8209026,2.2446427,0.8507488811214159,0.56288191344021,-0.6910991,2.4210734,0.636977756715179,0.4606596157729311,-0.411582,2.1641278,0.3910236078350926,0.2898731265735133,-0.42674476,1.3197057,-0.04786456569518157,0.44601528020032655,-1.0295577,1.4483162,0.2612920299268781,0.3477565612551252,-0.9738067,1.4270484,0.3908134995659381,0.33337743164832295,-0.5435522,1.5140584,0.6102859713735774,0.23636583621884869,-0.22198558,1.2782301,0.04139995583028708,0.27517531200514117,-0.6728693,0.97922164,0.2506731918596264,0.25758674093484835,-0.6367133,1.33309,0.5827162704844705,0.2501168093954831,-0.30352998,1.2966896,0.3447855653864484,0.1618290538476379,-0.084212795,1.3938742,-0.1126380243885794,0.28767044954629617,-0.67898166,0.9737167,-0.01956549706076934,0.2999513956020392,-0.6181989,1.4612886,0.20378663029369312,0.18739351406861898,-0.37329462,1.1378206,-0.05714082166687249,0.24261294991598004,-0.6465176,1.5111367,-0.3057351426956952,0.413547349011725,-1.0151485,1.1831115,-0.3151914207930734,0.3977434107441988,-1.1686044,1.3899435,-0.1602561976093904,0.2647486688733103,-0.6678875,1.2447697,853.6209913691715,28.124594548406794,604.7985,1557.326,853.3427029657645,10.159552417741637,587.47253,1480.3663,852.5765381162527,123.01164811210596,0.0,1650.0,847.189035261117,50.95624485857345,0.0,1650.0,851.6936909553467,25.84162404507056,715.2015,975.09155,-0.08742381235166542,0.059598070226076494,-0.3687744140625,0.42547607421875,0.1492220932394958,0.04033991221620962,-0.30242919921875,0.38446044921875,0.9914523557662767,0.010772866765139302,0.810302734375,1.0965576171875,-0.45480412264741044,2.5485007486912945,-43.6346435546875,34.819488525390625,2.549054499664713,3.3681723987032006,-39.91867065429688,47.0440673828125,4.140892118170981,3.0649312796802315,-32.40447998046875,47.63473510742188,1.0,0.0,1.0,1.0,1.0486077791262516,0.21504699011866804,1.0,2.0,1.0,0.0,1.0,1.0,1.1136136277396755,0.4600692153523879,1.0,4.0,1.0499687969417868,0.22705755084777257,1.0,4.0,56.14501748312056,0.7027851045639132,54.95,57.44,,,,,,,,
38,1676983181.4531243,284.2167618260661,1676982688.8,1676983673.684,0.7311094262852202,0.38591934496594793,-0.45964143,1.7762628,0.7686269336788295,0.4153690420890275,-0.40977535,1.8252068,0.6015120488733241,0.43471247017975323,-0.927489,1.6376815,0.7297269912091671,0.39694024613189577,-0.6381413,1.8094022,0.5120160459277072,0.3762171562794616,-0.6696476,1.678732,0.44528481377893103,0.3511836745762602,-0.8009189,1.3574964,0.29671896574976575,0.3738430365136248,-0.9371444,1.257146,0.48758338751931846,0.3849966321377581,-0.7199789,1.5270042,0.7720516911866342,0.32179140271691026,-0.28453422,1.460354,0.5609434289536566,0.2669498754550603,-0.39807,1.1500164,0.42736391294920006,0.28152566393342315,-0.5952326,1.1988429,0.7579038864903714,0.32010517851412695,-0.28172204,1.5333917,0.5117011396382861,0.1807039427870779,-0.08874706,1.116612,0.5307617544803704,0.18843462679385709,-0.3949161,0.93216485,0.33726652360781356,0.19570180275945107,-0.66940403,0.7644455,0.5568368403081677,0.16082972406909796,-0.018659934,1.1606328,0.19139267132315246,0.16345048725993727,-0.6174786,1.4356637,0.3881813668192508,0.2606698027626646,-0.7468818,0.99062955,0.14974180982818308,0.2537291754322646,-1.0090942,0.7638314,0.2741222151840441,0.13514463490047768,-0.20396839,1.0066662,853.3041676941632,27.065775481057763,579.81683,1014.9817,852.3706979579296,28.874441042864902,0.0,1650.0,853.2179214702618,15.589481830395838,0.0,1650.0,847.6775305046921,38.32248200718915,0.8058608,1650.0,852.0537618609629,33.94091923265825,0.0,1650.0,-0.0547938675569938,0.043462128669142217,-0.3125,0.02105712890625,0.14452472651090342,0.010613103323297788,0.07318115234375,0.42889404296875,0.99573654673296,0.006564949299021102,0.92669677734375,1.23455810546875,-0.47260381352694064,0.49596632945493146,-22.02667236328125,14.8638916015625,2.5368289071063144,0.7264099843540361,-7.58148193359375,24.8828125,4.175391410097161,0.5695083837956143,-13.47320556640625,13.405914306640623,1.0,0.0,1.0,1.0,1.000206282293992,0.014361073351194251,1.0,2.0,1.002269105233914,0.07731143236040285,1.0,4.0,1.0,0.0,1.0,1.0,1.0062383758263769,0.1293054953063234,1.0,4.0,81.5991814585489,0.5378220136721967,80.67,82.55,,,,,,,,
